; The collision integrals Q_{i,j}^{11} are exponential fit function obtained from 
; Transport properties of high-temperature Jupiter atmosphere components, D. Bruno, C. Catalfamo, M. Capitelli, G. Colonna, O. De Pascale et al., Phys. Plasmas 17, 112315 (2010), doi: 10.1063/1.3495980, Published by the American Institute of Physics
; 
; 
; To obtain these collision integrals, the original data (transport cross section Q^l_{i,j} or elastic collision differential cross section) are obtained from:
; 
; H-H2 collision integrals and transport coefficients, J. R. Stallcop, E. Levin, H. Partridge, Chem. Phys. Lett. 254, 25 (1996)
;
;
; 1 atomic unit of square distance = 2.80e-17 cm^2
; 1eV = 11604K

2.80e-17


;        E             T             Q11
;       (eV)         (K)         (a.u.)

0.0862174       1000       41.5964
0.0948391       1100       40.1574
0.103461       1200       38.8546
0.112083       1300       37.6663
0.120704       1400       36.5752
0.129326       1500       35.568
0.137948       1600       34.6337
0.14657       1700       33.7634
0.155191       1800       32.9496
0.163813       1900       32.1862
0.172435       2000       31.4678
0.181056       2100       30.79
0.189678       2200       30.1488
0.1983       2300       29.5411
0.206922       2400       28.9637
0.215543       2500       28.4142
0.224165       2600       27.8903
0.232787       2700       27.39
0.241409       2800       26.9116
0.25003       2900       26.4533
0.258652       3000       26.0138
0.267274       3100       25.5918
0.275896       3200       25.1862
0.284517       3300       24.7958
0.293139       3400       24.4197
0.301761       3500       24.0571
0.310383       3600       23.7071
0.319004       3700       23.369
0.327626       3800       23.0422
0.336248       3900       22.726
0.34487       4000       22.4198
0.353491       4100       22.1232
0.362113       4200       21.8355
0.370735       4300       21.5565
0.379356       4400       21.2855
0.387978       4500       21.0224
0.3966       4600       20.7666
0.405222       4700       20.5179
0.413843       4800       20.2759
0.422465       4900       20.0403
0.431087       5000       19.8109
0.439709       5100       19.5873
0.44833       5200       19.3694
0.456952       5300       19.1569
0.465574       5400       18.9496
0.474196       5500       18.7472
0.482817       5600       18.5497
0.491439       5700       18.3567
0.500061       5800       18.1681
0.508683       5900       17.9838
0.517304       6000       17.8036
0.525926       6100       17.6274
0.534548       6200       17.4549
0.543169       6300       17.2861
0.551791       6400       17.1209
0.560413       6500       16.9591
0.569035       6600       16.8006
0.577656       6700       16.6453
0.586278       6800       16.4931
0.5949       6900       16.3439
0.603522       7000       16.1975
0.612143       7100       16.054
0.620765       7200       15.9132
0.629387       7300       15.7751
0.638009       7400       15.6395
0.64663       7500       15.5064
0.655252       7600       15.3757
0.663874       7700       15.2473
0.672496       7800       15.1212
0.681117       7900       14.9973
0.689739       8000       14.8755
0.698361       8100       14.7558
0.706983       8200       14.6381
0.715604       8300       14.5224
0.724226       8400       14.4087
0.732848       8500       14.2967
0.741469       8600       14.1866
0.750091       8700       14.0783
0.758713       8800       13.9717
0.767335       8900       13.8668
0.775956       9000       13.7635
0.784578       9100       13.6618
0.7932       9200       13.5616
0.801822       9300       13.463
0.810443       9400       13.3658
0.819065       9500       13.2701
0.827687       9600       13.1758
0.836309       9700       13.0829
0.84493       9800       12.9913
0.853552       9900       12.901
0.862174       10000       12.8121
0.870796       10100       12.7243
0.879417       10200       12.6378
0.888039       10300       12.5525
0.896661       10400       12.4684
0.905282       10500       12.3854
0.913904       10600       12.3035
0.922526       10700       12.2227
0.931148       10800       12.143
0.939769       10900       12.0644
0.948391       11000       11.9868
0.957013       11100       11.9101
0.965635       11200       11.8345
0.974256       11300       11.7598
0.982878       11400       11.6861
0.9915       11500       11.6133
1.00012       11600       11.5414
1.00874       11700       11.4704
1.01737       11800       11.4003
1.02599       11900       11.3311
1.03461       12000       11.2626
1.04323       12100       11.195
1.05185       12200       11.1282
1.06047       12300       11.0622
1.0691       12400       10.997
1.07772       12500       10.9325
1.08634       12600       10.8688
1.09496       12700       10.8058
1.10358       12800       10.7435
1.1122       12900       10.682
1.12083       13000       10.6211
1.12945       13100       10.5609
1.13807       13200       10.5014
1.14669       13300       10.4426
1.15531       13400       10.3844
1.16393       13500       10.3268
1.17256       13600       10.2699
1.18118       13700       10.2135
1.1898       13800       10.1578
1.19842       13900       10.1027
1.20704       14000       10.0481
1.21567       14100       9.99415
1.22429       14200       9.94074
1.23291       14300       9.88788
1.24153       14400       9.83557
1.25015       14500       9.78379
1.25877       14600       9.73254
1.2674       14700       9.68181
1.27602       14800       9.63159
1.28464       14900       9.58188
1.29326       15000       9.53266
1.30188       15100       9.48392
1.3105       15200       9.43567
1.31913       15300       9.38789
1.32775       15400       9.34057
1.33637       15500       9.29371
1.34499       15600       9.2473
1.35361       15700       9.20134
1.36223       15800       9.15581
1.37086       15900       9.11071
1.37948       16000       9.06604
1.3881       16100       9.02178
1.39672       16200       8.97794
1.40534       16300       8.9345
1.41397       16400       8.89146
1.42259       16500       8.84882
1.43121       16600       8.80656
1.43983       16700       8.76469
1.44845       16800       8.72319
1.45707       16900       8.68207
1.4657       17000       8.64131
1.47432       17100       8.60092
1.48294       17200       8.56088
1.49156       17300       8.52119
1.50018       17400       8.48185
1.5088       17500       8.44285
1.51743       17600       8.40419
1.52605       17700       8.36586
1.53467       17800       8.32786
1.54329       17900       8.29018
1.55191       18000       8.25282
1.56053       18100       8.21578
1.56916       18200       8.17905
1.57778       18300       8.14263
1.5864       18400       8.10651
1.59502       18500       8.07068
1.60364       18600       8.03515
1.61227       18700       7.99992
1.62089       18800       7.96497
1.62951       18900       7.9303
1.63813       19000       7.89592
1.64675       19100       7.86181
1.65537       19200       7.82798
1.664       19300       7.79441
1.67262       19400       7.76111
1.68124       19500       7.72808
1.68986       19600       7.6953
1.69848       19700       7.66278
1.7071       19800       7.63052
1.71573       19900       7.5985
1.72435       20000       7.56673
1.73297       20100       7.53521
1.74159       20200       7.50393
1.75021       20300       7.47288
1.75883       20400       7.44208
1.76746       20500       7.4115
1.77608       20600       7.38116
1.7847       20700       7.35104
1.79332       20800       7.32114
1.80194       20900       7.29147
1.81056       21000       7.26202
1.81919       21100       7.23279
1.82781       21200       7.20377
1.83643       21300       7.17496
1.84505       21400       7.14636
1.85367       21500       7.11797
1.8623       21600       7.08979
1.87092       21700       7.0618
1.87954       21800       7.03402
1.88816       21900       7.00644
1.89678       22000       6.97905
1.9054       22100       6.95185
1.91403       22200       6.92485
1.92265       22300       6.89803
1.93127       22400       6.87141
1.93989       22500       6.84497
1.94851       22600       6.81871
1.95713       22700       6.79263
1.96576       22800       6.76673
1.97438       22900       6.74101
1.983       23000       6.71547
1.99162       23100       6.6901
2.00024       23200       6.6649
2.00886       23300       6.63987
2.01749       23400       6.61501
2.02611       23500       6.59032
2.03473       23600       6.56579
2.04335       23700       6.54143
2.05197       23800       6.51722
2.0606       23900       6.49318
2.06922       24000       6.46929
2.07784       24100       6.44556
2.08646       24200       6.42198
2.09508       24300       6.39856
2.1037       24400       6.37529
2.11233       24500       6.35217
2.12095       24600       6.3292
2.12957       24700       6.30638
2.13819       24800       6.2837
2.14681       24900       6.26117
2.15543       25000       6.23877
2.16406       25100       6.21653
2.17268       25200       6.19442
2.1813       25300       6.17245
2.18992       25400       6.15061
2.19854       25500       6.12891
2.20716       25600       6.10735
2.21579       25700       6.08592
2.22441       25800       6.06463
2.23303       25900       6.04346
2.24165       26000       6.02242
2.25027       26100       6.00152
2.2589       26200       5.98073
2.26752       26300       5.96008
2.27614       26400       5.93955
2.28476       26500       5.91914
2.29338       26600       5.89886
2.302       26700       5.8787
2.31063       26800       5.85865
2.31925       26900       5.83873
2.32787       27000       5.81893
2.33649       27100       5.79924
2.34511       27200       5.77966
2.35373       27300       5.76021
2.36236       27400       5.74086
2.37098       27500       5.72163
2.3796       27600       5.70251
2.38822       27700       5.6835
2.39684       27800       5.6646
2.40546       27900       5.64581
2.41409       28000       5.62713
2.42271       28100       5.60855
2.43133       28200       5.59008
2.43995       28300       5.57172
2.44857       28400       5.55346
2.4572       28500       5.5353
2.46582       28600       5.51724
2.47444       28700       5.49929
2.48306       28800       5.48143
2.49168       28900       5.46368
2.5003       29000       5.44602
2.50893       29100       5.42846
2.51755       29200       5.411
2.52617       29300       5.39364
2.53479       29400       5.37637
2.54341       29500       5.35919
2.55203       29600       5.34211
2.56066       29700       5.32512
2.56928       29800       5.30822
2.5779       29900       5.29142
2.58652       30000       5.2747
2.59514       30100       5.25808
2.60376       30200       5.24154
2.61239       30300       5.2251
2.62101       30400       5.20874
2.62963       30500       5.19246
2.63825       30600       5.17628
2.64687       30700       5.16018
2.6555       30800       5.14416
2.66412       30900       5.12823
2.67274       31000       5.11238
2.68136       31100       5.09662
2.68998       31200       5.08093
2.6986       31300       5.06533
2.70723       31400       5.04981
2.71585       31500       5.03437
2.72447       31600       5.01901
2.73309       31700       5.00372
2.74171       31800       4.98852
2.75033       31900       4.97339
2.75896       32000       4.95834
2.76758       32100       4.94337
2.7762       32200       4.92847
2.78482       32300       4.91365
2.79344       32400       4.8989
2.80206       32500       4.88423
2.81069       32600       4.86963
2.81931       32700       4.8551
2.82793       32800       4.84064
2.83655       32900       4.82626
2.84517       33000       4.81195
2.8538       33100       4.79771
2.86242       33200       4.78354
2.87104       33300       4.76943
2.87966       33400       4.7554
2.88828       33500       4.74144
2.8969       33600       4.72754
2.90553       33700       4.71371
2.91415       33800       4.69995
2.92277       33900       4.68626
2.93139       34000       4.67263
2.94001       34100       4.65907
2.94863       34200       4.64557
2.95726       34300       4.63214
2.96588       34400       4.61877
2.9745       34500       4.60546
2.98312       34600       4.59222
2.99174       34700       4.57904
3.00036       34800       4.56592
3.00899       34900       4.55287
3.01761       35000       4.53987
3.02623       35100       4.52694
3.03485       35200       4.51407
3.04347       35300       4.50125
3.0521       35400       4.4885
3.06072       35500       4.47581
3.06934       35600       4.46317
3.07796       35700       4.45059
3.08658       35800       4.43808
3.0952       35900       4.42561
3.10383       36000       4.41321
3.11245       36100       4.40086
3.12107       36200       4.38857
3.12969       36300       4.37634
3.13831       36400       4.36416
3.14693       36500       4.35203
3.15556       36600       4.33996
3.16418       36700       4.32795
3.1728       36800       4.31598
3.18142       36900       4.30408
3.19004       37000       4.29222
3.19866       37100       4.28042
3.20729       37200       4.26867
3.21591       37300       4.25697
3.22453       37400       4.24533
3.23315       37500       4.23373
3.24177       37600       4.22219
3.2504       37700       4.2107
3.25902       37800       4.19926
3.26764       37900       4.18787
3.27626       38000       4.17652
3.28488       38100       4.16523
3.2935       38200       4.15399
3.30213       38300       4.14279
3.31075       38400       4.13165
3.31937       38500       4.12055
3.32799       38600       4.1095
3.33661       38700       4.0985
3.34523       38800       4.08754
3.35386       38900       4.07663
3.36248       39000       4.06577
3.3711       39100       4.05496
3.37972       39200       4.04419
3.38834       39300       4.03346
3.39696       39400       4.02278
3.40559       39500       4.01215
3.41421       39600       4.00156
3.42283       39700       3.99101
3.43145       39800       3.98051
3.44007       39900       3.97006
3.4487       40000       3.95964
3.45732       40100       3.94927
3.46594       40200       3.93895
3.47456       40300       3.92866
3.48318       40400       3.91842
3.4918       40500       3.90822
3.50043       40600       3.89807
3.50905       40700       3.88795
3.51767       40800       3.87788
3.52629       40900       3.86784
3.53491       41000       3.85785
3.54353       41100       3.8479
3.55216       41200       3.83799
3.56078       41300       3.82812
3.5694       41400       3.81829
3.57802       41500       3.8085
3.58664       41600       3.79875
3.59526       41700       3.78903
3.60389       41800       3.77936
3.61251       41900       3.76973
3.62113       42000       3.76013
3.62975       42100       3.75057
3.63837       42200       3.74105
3.647       42300       3.73157
3.65562       42400       3.72212
3.66424       42500       3.71272
3.67286       42600       3.70335
3.68148       42700       3.69401
3.6901       42800       3.68472
3.69873       42900       3.67546
3.70735       43000       3.66623
3.71597       43100       3.65704
3.72459       43200       3.64789
3.73321       43300       3.63877
3.74183       43400       3.62969
3.75046       43500       3.62065
3.75908       43600       3.61163
3.7677       43700       3.60266
3.77632       43800       3.59372
3.78494       43900       3.58481
3.79356       44000       3.57593
3.80219       44100       3.56709
3.81081       44200       3.55829
3.81943       44300       3.54951
3.82805       44400       3.54077
3.83667       44500       3.53207
3.8453       44600       3.5234
3.85392       44700       3.51475
3.86254       44800       3.50615
3.87116       44900       3.49757
3.87978       45000       3.48903
3.8884       45100       3.48052
3.89703       45200       3.47204
3.90565       45300       3.46359
3.91427       45400       3.45517
3.92289       45500       3.44679
3.93151       45600       3.43843
3.94013       45700       3.43011
3.94876       45800       3.42182
3.95738       45900       3.41355
3.966       46000       3.40532
3.97462       46100       3.39712
3.98324       46200       3.38895
3.99186       46300       3.38081
4.00049       46400       3.3727
4.00911       46500       3.36461
4.01773       46600       3.35656
4.02635       46700       3.34854
4.03497       46800       3.34054
4.0436       46900       3.33258
4.05222       47000       3.32464
4.06084       47100       3.31673
4.06946       47200       3.30885
4.07808       47300       3.301
4.0867       47400       3.29318
4.09533       47500       3.28538
4.10395       47600       3.27761
4.11257       47700       3.26987
4.12119       47800       3.26216
4.12981       47900       3.25448
4.13843       48000       3.24682
4.14706       48100       3.23919
4.15568       48200       3.23158
4.1643       48300       3.22401
4.17292       48400       3.21646
4.18154       48500       3.20893
4.19016       48600       3.20143
4.19879       48700       3.19396
4.20741       48800       3.18652
4.21603       48900       3.1791
4.22465       49000       3.1717
4.23327       49100       3.16434
4.2419       49200       3.15699
4.25052       49300       3.14968
4.25914       49400       3.14238
4.26776       49500       3.13512
4.27638       49600       3.12788
4.285       49700       3.12066
4.29363       49800       3.11347
4.30225       49900       3.1063
4.31087       50000       3.09916
4.31949       50100       3.09204
4.32811       50200       3.08494
4.33673       50300       3.07787
4.34536       50400       3.07083
4.35398       50500       3.0638
4.3626       50600       3.0568
4.37122       50700       3.04983
4.37984       50800       3.04288
4.38846       50900       3.03595
4.39709       51000       3.02904
4.40571       51100       3.02216
4.41433       51200       3.0153
4.42295       51300       3.00846
4.43157       51400       3.00165
4.4402       51500       2.99486
4.44882       51600       2.98809
4.45744       51700       2.98135
4.46606       51800       2.97462
4.47468       51900       2.96792
4.4833       52000       2.96124
4.49193       52100       2.95458
4.50055       52200       2.94795
4.50917       52300       2.94133
4.51779       52400       2.93474
4.52641       52500       2.92817
4.53503       52600       2.92162
4.54366       52700       2.91509
4.55228       52800       2.90859
4.5609       52900       2.9021
4.56952       53000       2.89564
4.57814       53100       2.88919
4.58676       53200       2.88277
4.59539       53300       2.87637
4.60401       53400       2.86999
4.61263       53500       2.86363
4.62125       53600       2.85728
4.62987       53700       2.85096
4.6385       53800       2.84466
4.64712       53900       2.83838
4.65574       54000       2.83212
4.66436       54100       2.82588
4.67298       54200       2.81966
4.6816       54300       2.81346
4.69023       54400       2.80728
4.69885       54500       2.80112
4.70747       54600       2.79498
4.71609       54700       2.78885
4.72471       54800       2.78275
4.73333       54900       2.77667
4.74196       55000       2.7706
4.75058       55100       2.76456
4.7592       55200       2.75853
4.76782       55300       2.75252
4.77644       55400       2.74653
4.78506       55500       2.74056
4.79369       55600       2.7346
4.80231       55700       2.72867
4.81093       55800       2.72275
4.81955       55900       2.71686
4.82817       56000       2.71098
4.8368       56100       2.70512
4.84542       56200       2.69927
4.85404       56300       2.69345
4.86266       56400       2.68764
4.87128       56500       2.68185
4.8799       56600       2.67608
4.88853       56700       2.67032
4.89715       56800       2.66458
4.90577       56900       2.65886
4.91439       57000       2.65316
4.92301       57100       2.64748
4.93163       57200       2.64181
4.94026       57300       2.63616
4.94888       57400       2.63052
4.9575       57500       2.62491
4.96612       57600       2.61931
4.97474       57700       2.61372
4.98336       57800       2.60816
4.99199       57900       2.60261
5.00061       58000       2.59707
5.00923       58100       2.59156
5.01785       58200       2.58606
5.02647       58300       2.58057
5.03509       58400       2.5751
5.04372       58500       2.56965
5.05234       58600       2.56422
5.06096       58700       2.5588
5.06958       58800       2.55339
5.0782       58900       2.54801
5.08683       59000       2.54263
5.09545       59100       2.53728
5.10407       59200       2.53194
5.11269       59300       2.52661
5.12131       59400       2.5213
5.12993       59500       2.51601
5.13856       59600       2.51073
5.14718       59700       2.50547
5.1558       59800       2.50022
5.16442       59900       2.49499
5.17304       60000       2.48977
5.18166       60100       2.48457
5.19029       60200       2.47938
5.19891       60300       2.47421
5.20753       60400       2.46906
5.21615       60500       2.46391
5.22477       60600       2.45879
5.23339       60700       2.45367
5.24202       60800       2.44857
5.25064       60900       2.44349
5.25926       61000       2.43842
5.26788       61100       2.43337
5.2765       61200       2.42833
5.28513       61300       2.4233
5.29375       61400       2.41829
5.30237       61500       2.41329
5.31099       61600       2.40831
5.31961       61700       2.40334
5.32823       61800       2.39838
5.33686       61900       2.39344
5.34548       62000       2.38851
5.3541       62100       2.3836
5.36272       62200       2.3787
5.37134       62300       2.37381
5.37996       62400       2.36894
5.38859       62500       2.36408
5.39721       62600       2.35924
5.40583       62700       2.3544
5.41445       62800       2.34959
5.42307       62900       2.34478
5.43169       63000       2.33999
5.44032       63100       2.33521
5.44894       63200       2.33044
5.45756       63300       2.32569
5.46618       63400       2.32095
5.4748       63500       2.31623
5.48343       63600       2.31151
5.49205       63700       2.30681
5.50067       63800       2.30213
5.50929       63900       2.29745
5.51791       64000       2.29279
5.52653       64100       2.28814
5.53516       64200       2.2835
5.54378       64300       2.27888
5.5524       64400       2.27427
5.56102       64500       2.26967
5.56964       64600       2.26508
5.57826       64700       2.26051
5.58689       64800       2.25595
5.59551       64900       2.2514
5.60413       65000       2.24686
5.61275       65100       2.24234
5.62137       65200       2.23783
5.62999       65300       2.23333
5.63862       65400       2.22884
5.64724       65500       2.22436
5.65586       65600       2.2199
5.66448       65700       2.21544
5.6731       65800       2.211
5.68173       65900       2.20657
5.69035       66000       2.20216
5.69897       66100       2.19775
5.70759       66200       2.19336
5.71621       66300       2.18898
5.72483       66400       2.18461
5.73346       66500       2.18025
5.74208       66600       2.1759
5.7507       66700       2.17156
5.75932       66800       2.16724
5.76794       66900       2.16292
5.77656       67000       2.15862
5.78519       67100       2.15433
5.79381       67200       2.15005
5.80243       67300       2.14578
5.81105       67400       2.14153
5.81967       67500       2.13728
5.82829       67600       2.13305
5.83692       67700       2.12882
5.84554       67800       2.12461
5.85416       67900       2.12041
5.86278       68000       2.11621
5.8714       68100       2.11203
5.88003       68200       2.10786
5.88865       68300       2.10371
5.89727       68400       2.09956
5.90589       68500       2.09542
5.91451       68600       2.09129
5.92313       68700       2.08718
5.93176       68800       2.08307
5.94038       68900       2.07897
5.949       69000       2.07489
5.95762       69100       2.07081
5.96624       69200       2.06675
5.97486       69300       2.0627
5.98349       69400       2.05865
5.99211       69500       2.05462
6.00073       69600       2.0506
6.00935       69700       2.04658
6.01797       69800       2.04258
6.02659       69900       2.03859
6.03522       70000       2.0346
6.04384       70100       2.03063
6.05246       70200       2.02667
6.06108       70300       2.02272
6.0697       70400       2.01877
6.07833       70500       2.01484
6.08695       70600       2.01092
6.09557       70700       2.007
6.10419       70800       2.0031
6.11281       70900       1.99921
6.12143       71000       1.99532
6.13006       71100       1.99145
6.13868       71200       1.98758
6.1473       71300       1.98373
6.15592       71400       1.97988
6.16454       71500       1.97604
6.17316       71600       1.97222
6.18179       71700       1.9684
6.19041       71800       1.96459
6.19903       71900       1.96079
6.20765       72000       1.957
6.21627       72100       1.95322
6.22489       72200       1.94945
6.23352       72300       1.94569
6.24214       72400       1.94194
6.25076       72500       1.9382
6.25938       72600       1.93446
6.268       72700       1.93074
6.27663       72800       1.92702
6.28525       72900       1.92331
6.29387       73000       1.91962
6.30249       73100       1.91593
6.31111       73200       1.91225
6.31973       73300       1.90858
6.32836       73400       1.90491
6.33698       73500       1.90126
6.3456       73600       1.89761
6.35422       73700       1.89398
6.36284       73800       1.89035
6.37146       73900       1.88673
6.38009       74000       1.88312
6.38871       74100       1.87952
6.39733       74200       1.87593
6.40595       74300       1.87234
6.41457       74400       1.86877
6.42319       74500       1.8652
6.43182       74600       1.86164
6.44044       74700       1.85809
6.44906       74800       1.85455
6.45768       74900       1.85102
6.4663       75000       1.84749
6.47493       75100       1.84398
6.48355       75200       1.84047
6.49217       75300       1.83697
6.50079       75400       1.83348
6.50941       75500       1.82999
6.51803       75600       1.82652
6.52666       75700       1.82305
6.53528       75800       1.81959
6.5439       75900       1.81614
6.55252       76000       1.8127
6.56114       76100       1.80926
6.56976       76200       1.80584
6.57839       76300       1.80242
6.58701       76400       1.79901
6.59563       76500       1.7956
6.60425       76600       1.79221
6.61287       76700       1.78882
6.62149       76800       1.78544
6.63012       76900       1.78207
6.63874       77000       1.7787
6.64736       77100       1.77535
6.65598       77200       1.772
6.6646       77300       1.76866
6.67323       77400       1.76533
6.68185       77500       1.762
6.69047       77600       1.75868
6.69909       77700       1.75537
6.70771       77800       1.75207
6.71633       77900       1.74878
6.72496       78000       1.74549
6.73358       78100       1.74221
6.7422       78200       1.73894
6.75082       78300       1.73567
6.75944       78400       1.73241
6.76806       78500       1.72916
6.77669       78600       1.72592
6.78531       78700       1.72268
6.79393       78800       1.71946
6.80255       78900       1.71624
6.81117       79000       1.71302
6.81979       79100       1.70982
6.82842       79200       1.70662
6.83704       79300       1.70342
6.84566       79400       1.70024
6.85428       79500       1.69706
6.8629       79600       1.69389
6.87153       79700       1.69073
6.88015       79800       1.68757
6.88877       79900       1.68442
6.89739       80000       1.68128
6.90601       80100       1.67815
6.91463       80200       1.67502
6.92326       80300       1.6719
6.93188       80400       1.66878
6.9405       80500       1.66567
6.94912       80600       1.66257
6.95774       80700       1.65948
6.96636       80800       1.65639
6.97499       80900       1.65331
6.98361       81000       1.65024
6.99223       81100       1.64717
7.00085       81200       1.64411
7.00947       81300       1.64106
7.01809       81400       1.63801
7.02672       81500       1.63497
7.03534       81600       1.63194
7.04396       81700       1.62891
7.05258       81800       1.62589
7.0612       81900       1.62288
7.06983       82000       1.61987
7.07845       82100       1.61687
7.08707       82200       1.61388
7.09569       82300       1.61089
7.10431       82400       1.60791
7.11293       82500       1.60494
7.12156       82600       1.60197
7.13018       82700       1.59901
7.1388       82800       1.59606
7.14742       82900       1.59311
7.15604       83000       1.59017
7.16466       83100       1.58723
7.17329       83200       1.5843
7.18191       83300       1.58138
7.19053       83400       1.57846
7.19915       83500       1.57555
7.20777       83600       1.57265
7.21639       83700       1.56975
7.22502       83800       1.56686
7.23364       83900       1.56397
7.24226       84000       1.56109
7.25088       84100       1.55822
7.2595       84200       1.55535
7.26813       84300       1.55249
7.27675       84400       1.54963
7.28537       84500       1.54679
7.29399       84600       1.54394
7.30261       84700       1.54111
7.31123       84800       1.53827
7.31986       84900       1.53545
7.32848       85000       1.53263
7.3371       85100       1.52982
7.34572       85200       1.52701
7.35434       85300       1.52421
7.36296       85400       1.52141
7.37159       85500       1.51862
7.38021       85600       1.51584
7.38883       85700       1.51306
7.39745       85800       1.51029
7.40607       85900       1.50753
7.41469       86000       1.50476
7.42332       86100       1.50201
7.43194       86200       1.49926
7.44056       86300       1.49652
7.44918       86400       1.49378
7.4578       86500       1.49105
7.46643       86600       1.48832
7.47505       86700       1.4856
7.48367       86800       1.48289
7.49229       86900       1.48018
7.50091       87000       1.47748
7.50953       87100       1.47478
7.51816       87200       1.47208
7.52678       87300       1.4694
7.5354       87400       1.46672
7.54402       87500       1.46404
7.55264       87600       1.46137
7.56126       87700       1.45871
7.56989       87800       1.45605
7.57851       87900       1.45339
7.58713       88000       1.45074
7.59575       88100       1.4481
7.60437       88200       1.44546
7.61299       88300       1.44283
7.62162       88400       1.4402
7.63024       88500       1.43758
7.63886       88600       1.43497
7.64748       88700       1.43236
7.6561       88800       1.42975
7.66473       88900       1.42715
7.67335       89000       1.42455
7.68197       89100       1.42196
7.69059       89200       1.41938
7.69921       89300       1.4168
7.70783       89400       1.41423
7.71646       89500       1.41166
7.72508       89600       1.40909
7.7337       89700       1.40653
7.74232       89800       1.40398
7.75094       89900       1.40143
7.75956       90000       1.39889
7.76819       90100       1.39635
7.77681       90200       1.39382
7.78543       90300       1.39129
7.79405       90400       1.38877
7.80267       90500       1.38625
7.81129       90600       1.38374
7.81992       90700       1.38123
7.82854       90800       1.37872
7.83716       90900       1.37623
7.84578       91000       1.37373
7.8544       91100       1.37125
7.86303       91200       1.36876
7.87165       91300       1.36628
7.88027       91400       1.36381
7.88889       91500       1.36134
7.89751       91600       1.35888
7.90613       91700       1.35642
7.91476       91800       1.35397
7.92338       91900       1.35152
7.932       92000       1.34907
7.94062       92100       1.34663
7.94924       92200       1.3442
7.95786       92300       1.34177
7.96649       92400       1.33934
7.97511       92500       1.33692
7.98373       92600       1.33451
7.99235       92700       1.3321
8.00097       92800       1.32969
8.00959       92900       1.32729
8.01822       93000       1.32489
8.02684       93100       1.3225
8.03546       93200       1.32011
8.04408       93300       1.31773
8.0527       93400       1.31535
8.06133       93500       1.31298
8.06995       93600       1.31061
8.07857       93700       1.30824
8.08719       93800       1.30588
8.09581       93900       1.30353
8.10443       94000       1.30118
8.11306       94100       1.29883
8.12168       94200       1.29649
8.1303       94300       1.29415
8.13892       94400       1.29182
8.14754       94500       1.28949
8.15616       94600       1.28716
8.16479       94700       1.28484
8.17341       94800       1.28253
8.18203       94900       1.28022
8.19065       95000       1.27791
8.19927       95100       1.27561
8.20789       95200       1.27331
8.21652       95300       1.27102
8.22514       95400       1.26873
8.23376       95500       1.26645
8.24238       95600       1.26417
8.251       95700       1.26189
8.25963       95800       1.25962
8.26825       95900       1.25735
8.27687       96000       1.25509
8.28549       96100       1.25283
8.29411       96200       1.25058
8.30273       96300       1.24833
8.31136       96400       1.24608
8.31998       96500       1.24384
8.3286       96600       1.2416
8.33722       96700       1.23937
8.34584       96800       1.23714
8.35446       96900       1.23491
8.36309       97000       1.23269
8.37171       97100       1.23048
8.38033       97200       1.22827
8.38895       97300       1.22606
8.39757       97400       1.22385
8.40619       97500       1.22165
8.41482       97600       1.21946
8.42344       97700       1.21727
8.43206       97800       1.21508
8.44068       97900       1.21289
8.4493       98000       1.21071
8.45792       98100       1.20854
8.46655       98200       1.20637
8.47517       98300       1.2042
8.48379       98400       1.20204
8.49241       98500       1.19988
8.50103       98600       1.19772
8.50966       98700       1.19557
8.51828       98800       1.19342
8.5269       98900       1.19128
8.53552       99000       1.18914
8.54414       99100       1.187
8.55276       99200       1.18487
8.56139       99300       1.18274
8.57001       99400       1.18062
8.57863       99500       1.1785
8.58725       99600       1.17638
8.59587       99700       1.17427
8.60449       99800       1.17216
8.61312       99900       1.17006
8.62174       100000       1.16795
8.63036       100100       1.16586
8.63898       100200       1.16376
8.6476       100300       1.16167
8.65622       100400       1.15959
8.66485       100500       1.15751
8.67347       100600       1.15543
8.68209       100700       1.15335
8.69071       100800       1.15128
8.69933       100900       1.14922
8.70796       101000       1.14715
8.71658       101100       1.14509
8.7252       101200       1.14304
8.73382       101300       1.14099
8.74244       101400       1.13894
8.75106       101500       1.13689
8.75969       101600       1.13485
8.76831       101700       1.13282
8.77693       101800       1.13078
8.78555       101900       1.12875
8.79417       102000       1.12673
8.80279       102100       1.1247
8.81142       102200       1.12268
8.82004       102300       1.12067
8.82866       102400       1.11866
8.83728       102500       1.11665
8.8459       102600       1.11464
8.85452       102700       1.11264
8.86315       102800       1.11064
8.87177       102900       1.10865
8.88039       103000       1.10666
8.88901       103100       1.10467
8.89763       103200       1.10269
8.90626       103300       1.10071
8.91488       103400       1.09873
8.9235       103500       1.09676
8.93212       103600       1.09479
8.94074       103700       1.09282
8.94936       103800       1.09086
8.95799       103900       1.0889
8.96661       104000       1.08694
8.97523       104100       1.08499
8.98385       104200       1.08304
8.99247       104300       1.0811
9.00109       104400       1.07916
9.00972       104500       1.07722
9.01834       104600       1.07528
9.02696       104700       1.07335
9.03558       104800       1.07142
9.0442       104900       1.0695
9.05282       105000       1.06757
9.06145       105100       1.06566
9.07007       105200       1.06374
9.07869       105300       1.06183
9.08731       105400       1.05992
9.09593       105500       1.05802
9.10456       105600       1.05611
9.11318       105700       1.05421
9.1218       105800       1.05232
9.13042       105900       1.05043
9.13904       106000       1.04854
9.14766       106100       1.04665
9.15629       106200       1.04477
9.16491       106300       1.04289
9.17353       106400       1.04102
9.18215       106500       1.03914
9.19077       106600       1.03727
9.19939       106700       1.03541
9.20802       106800       1.03354
9.21664       106900       1.03169
9.22526       107000       1.02983
9.23388       107100       1.02798
9.2425       107200       1.02613
9.25112       107300       1.02428
9.25975       107400       1.02243
9.26837       107500       1.02059
9.27699       107600       1.01876
9.28561       107700       1.01692
9.29423       107800       1.01509
9.30286       107900       1.01326
9.31148       108000       1.01144
9.3201       108100       1.00961
9.32872       108200       1.0078
9.33734       108300       1.00598
9.34596       108400       1.00417
9.35459       108500       1.00236
9.36321       108600       1.00055
9.37183       108700       0.998747
9.38045       108800       0.996946
9.38907       108900       0.995148
9.39769       109000       0.993354
9.40632       109100       0.991562
9.41494       109200       0.989774
9.42356       109300       0.987988
9.43218       109400       0.986206
9.4408       109500       0.984426
9.44942       109600       0.98265
9.45805       109700       0.980876
9.46667       109800       0.979106
9.47529       109900       0.977338
9.48391       110000       0.975573
9.49253       110100       0.973812
9.50116       110200       0.972053
9.50978       110300       0.970297
9.5184       110400       0.968544
9.52702       110500       0.966794
9.53564       110600       0.965047
9.54426       110700       0.963303
9.55289       110800       0.961561
9.56151       110900       0.959823
9.57013       111000       0.958087
9.57875       111100       0.956355
9.58737       111200       0.954625
9.59599       111300       0.952898
9.60462       111400       0.951174
9.61324       111500       0.949452
9.62186       111600       0.947734
9.63048       111700       0.946018
9.6391       111800       0.944306
9.64772       111900       0.942596
9.65635       112000       0.940888
9.66497       112100       0.939184
9.67359       112200       0.937482
9.68221       112300       0.935784
9.69083       112400       0.934088
9.69946       112500       0.932394
9.70808       112600       0.930704
9.7167       112700       0.929016
9.72532       112800       0.927331
9.73394       112900       0.925649
9.74256       113000       0.92397
9.75119       113100       0.922293
9.75981       113200       0.920619
9.76843       113300       0.918948
9.77705       113400       0.917279
9.78567       113500       0.915613
9.79429       113600       0.91395
9.80292       113700       0.91229
9.81154       113800       0.910632
9.82016       113900       0.908977
9.82878       114000       0.907325
9.8374       114100       0.905675
9.84602       114200       0.904028
9.85465       114300       0.902383
9.86327       114400       0.900742
9.87189       114500       0.899102
9.88051       114600       0.897466
9.88913       114700       0.895832
9.89776       114800       0.894201
9.90638       114900       0.892572
9.915       115000       0.890946
9.92362       115100       0.889323
9.93224       115200       0.887702
9.94086       115300       0.886084
9.94949       115400       0.884468
9.95811       115500       0.882855
9.96673       115600       0.881245
9.97535       115700       0.879637
9.98397       115800       0.878032
9.99259       115900       0.876429
10.0012       116000       0.874829
10.0098       116100       0.873231
10.0185       116200       0.871636
10.0271       116300       0.870043
10.0357       116400       0.868453
10.0443       116500       0.866866
10.0529       116600       0.865281
10.0616       116700       0.863698
10.0702       116800       0.862118
10.0788       116900       0.86054
10.0874       117000       0.858965
10.0961       117100       0.857393
10.1047       117200       0.855823
10.1133       117300       0.854255
10.1219       117400       0.85269
10.1305       117500       0.851127
10.1392       117600       0.849567
10.1478       117700       0.848009
10.1564       117800       0.846454
10.165       117900       0.844901
10.1737       118000       0.843351
10.1823       118100       0.841803
10.1909       118200       0.840257
10.1995       118300       0.838714
10.2081       118400       0.837173
10.2168       118500       0.835635
10.2254       118600       0.834099
10.234       118700       0.832565
10.2426       118800       0.831034
10.2512       118900       0.829505
10.2599       119000       0.827978
10.2685       119100       0.826454
10.2771       119200       0.824933
10.2857       119300       0.823413
10.2944       119400       0.821896
10.303       119500       0.820382
10.3116       119600       0.818869
10.3202       119700       0.817359
10.3288       119800       0.815852
10.3375       119900       0.814346
10.3461       120000       0.812844
10.3547       120100       0.811343
10.3633       120200       0.809844
10.372       120300       0.808348
10.3806       120400       0.806855
10.3892       120500       0.805363
10.3978       120600       0.803874
10.4064       120700       0.802387
10.4151       120800       0.800903
10.4237       120900       0.79942
10.4323       121000       0.79794
10.4409       121100       0.796462
10.4495       121200       0.794987
10.4582       121300       0.793514
10.4668       121400       0.792043
10.4754       121500       0.790574
10.484       121600       0.789107
10.4927       121700       0.787643
10.5013       121800       0.786181
10.5099       121900       0.784721
10.5185       122000       0.783263
10.5271       122100       0.781808
10.5358       122200       0.780355
10.5444       122300       0.778904
10.553       122400       0.777455
10.5616       122500       0.776008
10.5703       122600       0.774564
10.5789       122700       0.773122
10.5875       122800       0.771682
10.5961       122900       0.770244
10.6047       123000       0.768808
10.6134       123100       0.767374
10.622       123200       0.765943
10.6306       123300       0.764514
10.6392       123400       0.763087
10.6478       123500       0.761662
10.6565       123600       0.760239
10.6651       123700       0.758818
10.6737       123800       0.7574
10.6823       123900       0.755983
10.691       124000       0.754569
10.6996       124100       0.753157
10.7082       124200       0.751747
10.7168       124300       0.750339
10.7254       124400       0.748933
10.7341       124500       0.747529
10.7427       124600       0.746127
10.7513       124700       0.744728
10.7599       124800       0.74333
10.7686       124900       0.741935
10.7772       125000       0.740542
10.7858       125100       0.73915
10.7944       125200       0.737761
10.803       125300       0.736374
10.8117       125400       0.734989
10.8203       125500       0.733606
10.8289       125600       0.732225
10.8375       125700       0.730846
10.8461       125800       0.729469
10.8548       125900       0.728094
10.8634       126000       0.726721
10.872       126100       0.72535
10.8806       126200       0.723981
10.8893       126300       0.722615
10.8979       126400       0.72125
10.9065       126500       0.719887
10.9151       126600       0.718526
10.9237       126700       0.717168
10.9324       126800       0.715811
10.941       126900       0.714456
10.9496       127000       0.713103
10.9582       127100       0.711752
10.9669       127200       0.710403
10.9755       127300       0.709057
10.9841       127400       0.707712
10.9927       127500       0.706369
11.0013       127600       0.705028
11.01       127700       0.703689
11.0186       127800       0.702352
11.0272       127900       0.701016
11.0358       128000       0.699683
11.0444       128100       0.698352
11.0531       128200       0.697023
11.0617       128300       0.695695
11.0703       128400       0.69437
11.0789       128500       0.693046
11.0876       128600       0.691725
11.0962       128700       0.690405
11.1048       128800       0.689087
11.1134       128900       0.687771
11.122       129000       0.686457
11.1307       129100       0.685145
11.1393       129200       0.683835
11.1479       129300       0.682526
11.1565       129400       0.68122
11.1652       129500       0.679915
11.1738       129600       0.678613
11.1824       129700       0.677312
11.191       129800       0.676013
11.1996       129900       0.674716
11.2083       130000       0.673421
11.2169       130100       0.672127
11.2255       130200       0.670836
11.2341       130300       0.669546
11.2427       130400       0.668258
11.2514       130500       0.666972
11.26       130600       0.665688
11.2686       130700       0.664406
11.2772       130800       0.663125
11.2859       130900       0.661847
11.2945       131000       0.66057
11.3031       131100       0.659295
11.3117       131200       0.658022
11.3203       131300       0.65675
11.329       131400       0.655481
11.3376       131500       0.654213
11.3462       131600       0.652947
11.3548       131700       0.651683
11.3635       131800       0.65042
11.3721       131900       0.64916
11.3807       132000       0.647901
11.3893       132100       0.646644
11.3979       132200       0.645389
11.4066       132300       0.644135
11.4152       132400       0.642883
11.4238       132500       0.641633
11.4324       132600       0.640385
11.441       132700       0.639139
11.4497       132800       0.637894
11.4583       132900       0.636651
11.4669       133000       0.63541
11.4755       133100       0.63417
11.4842       133200       0.632933
11.4928       133300       0.631697
11.5014       133400       0.630462
11.51       133500       0.62923
11.5186       133600       0.627999
11.5273       133700       0.62677
11.5359       133800       0.625543
11.5445       133900       0.624317
11.5531       134000       0.623093
11.5618       134100       0.621871
11.5704       134200       0.62065
11.579       134300       0.619431
11.5876       134400       0.618214
11.5962       134500       0.616999
11.6049       134600       0.615785
11.6135       134700       0.614573
11.6221       134800       0.613363
11.6307       134900       0.612154
11.6393       135000       0.610947
11.648       135100       0.609742
11.6566       135200       0.608538
11.6652       135300       0.607336
11.6738       135400       0.606135
11.6825       135500       0.604937
11.6911       135600       0.60374
11.6997       135700       0.602544
11.7083       135800       0.60135
11.7169       135900       0.600158
11.7256       136000       0.598968
11.7342       136100       0.597779
11.7428       136200       0.596592
11.7514       136300       0.595406
11.7601       136400       0.594222
11.7687       136500       0.59304
11.7773       136600       0.591859
11.7859       136700       0.59068
11.7945       136800       0.589503
11.8032       136900       0.588327
11.8118       137000       0.587153
11.8204       137100       0.58598
11.829       137200       0.584809
11.8376       137300       0.58364
11.8463       137400       0.582472
11.8549       137500       0.581305
11.8635       137600       0.580141
11.8721       137700       0.578978
11.8808       137800       0.577816
11.8894       137900       0.576656
11.898       138000       0.575498
11.9066       138100       0.574341
11.9152       138200       0.573186
11.9239       138300       0.572032
11.9325       138400       0.57088
11.9411       138500       0.56973
11.9497       138600       0.568581
11.9584       138700       0.567433
11.967       138800       0.566288
11.9756       138900       0.565143
11.9842       139000       0.564001
11.9928       139100       0.562859
12.0015       139200       0.56172
12.0101       139300       0.560581
12.0187       139400       0.559445
12.0273       139500       0.55831
12.0359       139600       0.557176
12.0446       139700       0.556044
12.0532       139800       0.554914
12.0618       139900       0.553785
12.0704       140000       0.552657
12.0791       140100       0.551531
12.0877       140200       0.550407
12.0963       140300       0.549284
12.1049       140400       0.548162
12.1135       140500       0.547042
12.1222       140600       0.545924
12.1308       140700       0.544807
12.1394       140800       0.543691
12.148       140900       0.542577
12.1567       141000       0.541465
12.1653       141100       0.540354
12.1739       141200       0.539244
12.1825       141300       0.538136
12.1911       141400       0.53703
12.1998       141500       0.535925
12.2084       141600       0.534821
12.217       141700       0.533719
12.2256       141800       0.532618
12.2342       141900       0.531519
12.2429       142000       0.530421
12.2515       142100       0.529324
12.2601       142200       0.528229
12.2687       142300       0.527136
12.2774       142400       0.526044
12.286       142500       0.524953
12.2946       142600       0.523864
12.3032       142700       0.522776
12.3118       142800       0.52169
12.3205       142900       0.520605
12.3291       143000       0.519522
12.3377       143100       0.51844
12.3463       143200       0.517359
12.355       143300       0.51628
12.3636       143400       0.515202
12.3722       143500       0.514126
12.3808       143600       0.513051
12.3894       143700       0.511978
12.3981       143800       0.510905
12.4067       143900       0.509835
12.4153       144000       0.508765
12.4239       144100       0.507697
12.4325       144200       0.506631
12.4412       144300       0.505566
12.4498       144400       0.504502
12.4584       144500       0.50344
12.467       144600       0.502379
12.4757       144700       0.501319
12.4843       144800       0.500261
12.4929       144900       0.499204
12.5015       145000       0.498149
12.5101       145100       0.497094
12.5188       145200       0.496042
12.5274       145300       0.49499
12.536       145400       0.49394
12.5446       145500       0.492892
12.5533       145600       0.491844
12.5619       145700       0.490798
12.5705       145800       0.489754
12.5791       145900       0.488711
12.5877       146000       0.487669
12.5964       146100       0.486628
12.605       146200       0.485589
12.6136       146300       0.484551
12.6222       146400       0.483515
12.6308       146500       0.482479
12.6395       146600       0.481445
12.6481       146700       0.480413
12.6567       146800       0.479382
12.6653       146900       0.478352
12.674       147000       0.477323
12.6826       147100       0.476296
12.6912       147200       0.47527
12.6998       147300       0.474245
12.7084       147400       0.473222
12.7171       147500       0.4722
12.7257       147600       0.471179
12.7343       147700       0.47016
12.7429       147800       0.469142
12.7516       147900       0.468125
12.7602       148000       0.46711
12.7688       148100       0.466095
12.7774       148200       0.465083
12.786       148300       0.464071
12.7947       148400       0.463061
12.8033       148500       0.462052
12.8119       148600       0.461044
12.8205       148700       0.460037
12.8291       148800       0.459032
12.8378       148900       0.458028
12.8464       149000       0.457025
12.855       149100       0.456024
12.8636       149200       0.455024
12.8723       149300       0.454025
12.8809       149400       0.453027
12.8895       149500       0.452031
12.8981       149600       0.451036
12.9067       149700       0.450042
12.9154       149800       0.44905
12.924       149900       0.448058
12.9326       150000       0.447068
12.9412       150100       0.446079
12.9499       150200       0.445092
12.9585       150300       0.444105
12.9671       150400       0.44312
12.9757       150500       0.442136
12.9843       150600       0.441154
12.993       150700       0.440172
13.0016       150800       0.439192
13.0102       150900       0.438213
13.0188       151000       0.437236
13.0274       151100       0.436259
13.0361       151200       0.435284
13.0447       151300       0.43431
13.0533       151400       0.433337
13.0619       151500       0.432365
13.0706       151600       0.431395
13.0792       151700       0.430426
13.0878       151800       0.429458
13.0964       151900       0.428491
13.105       152000       0.427525
13.1137       152100       0.426561
13.1223       152200       0.425598
13.1309       152300       0.424636
13.1395       152400       0.423675
13.1482       152500       0.422715
13.1568       152600       0.421757
13.1654       152700       0.4208
13.174       152800       0.419844
13.1826       152900       0.418889
13.1913       153000       0.417935
13.1999       153100       0.416982
13.2085       153200       0.416031
13.2171       153300       0.415081
13.2257       153400       0.414132
13.2344       153500       0.413184
13.243       153600       0.412238
13.2516       153700       0.411292
13.2602       153800       0.410348
13.2689       153900       0.409405
13.2775       154000       0.408463
13.2861       154100       0.407522
13.2947       154200       0.406582
13.3033       154300       0.405644
13.312       154400       0.404706
13.3206       154500       0.40377
13.3292       154600       0.402835
13.3378       154700       0.401901
13.3465       154800       0.400968
13.3551       154900       0.400037
13.3637       155000       0.399106
13.3723       155100       0.398177
13.3809       155200       0.397248
13.3896       155300       0.396321
13.3982       155400       0.395395
13.4068       155500       0.39447
13.4154       155600       0.393547
13.424       155700       0.392624
13.4327       155800       0.391703
13.4413       155900       0.390782
13.4499       156000       0.389863
13.4585       156100       0.388945
13.4672       156200       0.388028
13.4758       156300       0.387112
13.4844       156400       0.386197
13.493       156500       0.385284
13.5016       156600       0.384371
13.5103       156700       0.38346
13.5189       156800       0.382549
13.5275       156900       0.38164
13.5361       157000       0.380732
13.5448       157100       0.379825
13.5534       157200       0.378919
13.562       157300       0.378014
13.5706       157400       0.37711
13.5792       157500       0.376207
13.5879       157600       0.375306
13.5965       157700       0.374405
13.6051       157800       0.373506
13.6137       157900       0.372608
13.6223       158000       0.37171
13.631       158100       0.370814
13.6396       158200       0.369919
13.6482       158300       0.369025
13.6568       158400       0.368132
13.6655       158500       0.36724
13.6741       158600       0.366349
13.6827       158700       0.365459
13.6913       158800       0.364571
13.6999       158900       0.363683
13.7086       159000       0.362796
13.7172       159100       0.361911
13.7258       159200       0.361026
13.7344       159300       0.360143
13.7431       159400       0.359261
13.7517       159500       0.358379
13.7603       159600       0.357499
13.7689       159700       0.35662
13.7775       159800       0.355742
13.7862       159900       0.354865
13.7948       160000       0.353988
13.8034       160100       0.353113
13.812       160200       0.352239
13.8206       160300       0.351366
13.8293       160400       0.350494
13.8379       160500       0.349624
13.8465       160600       0.348754
13.8551       160700       0.347885
13.8638       160800       0.347017
13.8724       160900       0.34615
13.881       161000       0.345284
13.8896       161100       0.34442
13.8982       161200       0.343556
13.9069       161300       0.342693
13.9155       161400       0.341832
13.9241       161500       0.340971
13.9327       161600       0.340111
13.9414       161700       0.339253
13.95       161800       0.338395
13.9586       161900       0.337538
13.9672       162000       0.336683
13.9758       162100       0.335828
13.9845       162200       0.334974
13.9931       162300       0.334122
14.0017       162400       0.33327
14.0103       162500       0.332419
14.0189       162600       0.33157
14.0276       162700       0.330721
14.0362       162800       0.329874
14.0448       162900       0.329027
14.0534       163000       0.328181
14.0621       163100       0.327337
14.0707       163200       0.326493
14.0793       163300       0.32565
14.0879       163400       0.324808
14.0965       163500       0.323968
14.1052       163600       0.323128
14.1138       163700       0.322289
14.1224       163800       0.321451
14.131       163900       0.320614
14.1397       164000       0.319779
14.1483       164100       0.318944
14.1569       164200       0.31811
14.1655       164300       0.317277
14.1741       164400       0.316445
14.1828       164500       0.315614
14.1914       164600       0.314784
14.2       164700       0.313955
14.2086       164800       0.313126
14.2172       164900       0.312299
14.2259       165000       0.311473
14.2345       165100       0.310648
14.2431       165200       0.309823
14.2517       165300       0.309
14.2604       165400       0.308177
14.269       165500       0.307356
14.2776       165600       0.306535
14.2862       165700       0.305716
14.2948       165800       0.304897
14.3035       165900       0.304079
14.3121       166000       0.303263
14.3207       166100       0.302447
14.3293       166200       0.301632
14.338       166300       0.300818
14.3466       166400       0.300005
14.3552       166500       0.299193
14.3638       166600       0.298382
14.3724       166700       0.297571
14.3811       166800       0.296762
14.3897       166900       0.295954
14.3983       167000       0.295146
14.4069       167100       0.29434
14.4155       167200       0.293534
14.4242       167300       0.292729
14.4328       167400       0.291926
14.4414       167500       0.291123
14.45       167600       0.290321
14.4587       167700       0.28952
14.4673       167800       0.288719
14.4759       167900       0.28792
14.4845       168000       0.287122
14.4931       168100       0.286325
14.5018       168200       0.285528
14.5104       168300       0.284732
14.519       168400       0.283938
14.5276       168500       0.283144
14.5363       168600       0.282351
14.5449       168700       0.281559
14.5535       168800       0.280768
14.5621       168900       0.279978
14.5707       169000       0.279188
14.5794       169100       0.2784
14.588       169200       0.277612
14.5966       169300       0.276826
14.6052       169400       0.27604
14.6138       169500       0.275255
14.6225       169600       0.274471
14.6311       169700       0.273688
14.6397       169800       0.272906
14.6483       169900       0.272124
14.657       170000       0.271344
14.6656       170100       0.270564
14.6742       170200       0.269786
14.6828       170300       0.269008
14.6914       170400       0.268231
14.7001       170500       0.267455
14.7087       170600       0.266679
14.7173       170700       0.265905
14.7259       170800       0.265132
14.7346       170900       0.264359
14.7432       171000       0.263587
14.7518       171100       0.262816
14.7604       171200       0.262046
14.769       171300       0.261277
14.7777       171400       0.260509
14.7863       171500       0.259741
14.7949       171600       0.258975
14.8035       171700       0.258209
14.8121       171800       0.257444
14.8208       171900       0.25668
14.8294       172000       0.255917
14.838       172100       0.255154
14.8466       172200       0.254393
14.8553       172300       0.253632
14.8639       172400       0.252872
14.8725       172500       0.252113
14.8811       172600       0.251355
14.8897       172700       0.250598
14.8984       172800       0.249842
14.907       172900       0.249086
14.9156       173000       0.248331
14.9242       173100       0.247577
14.9329       173200       0.246824
14.9415       173300       0.246072
14.9501       173400       0.24532
14.9587       173500       0.24457
14.9673       173600       0.24382
14.976       173700       0.243071
14.9846       173800       0.242323
14.9932       173900       0.241576
15.0018       174000       0.240829
15.0104       174100       0.240083
15.0191       174200       0.239339
15.0277       174300       0.238594
15.0363       174400       0.237851
15.0449       174500       0.237109
15.0536       174600       0.236367
15.0622       174700       0.235627
15.0708       174800       0.234887
15.0794       174900       0.234147
15.088       175000       0.233409
15.0967       175100       0.232672
15.1053       175200       0.231935
15.1139       175300       0.231199
15.1225       175400       0.230464
15.1312       175500       0.229729
15.1398       175600       0.228996
15.1484       175700       0.228263
15.157       175800       0.227531
15.1656       175900       0.2268
15.1743       176000       0.22607
15.1829       176100       0.22534
15.1915       176200       0.224612
15.2001       176300       0.223884
15.2087       176400       0.223157
15.2174       176500       0.22243
15.226       176600       0.221705
15.2346       176700       0.22098
15.2432       176800       0.220256
15.2519       176900       0.219533
15.2605       177000       0.21881
15.2691       177100       0.218089
15.2777       177200       0.217368
15.2863       177300       0.216648
15.295       177400       0.215928
15.3036       177500       0.21521
15.3122       177600       0.214492
15.3208       177700       0.213775
15.3295       177800       0.213059
15.3381       177900       0.212344
15.3467       178000       0.211629
15.3553       178100       0.210915
15.3639       178200       0.210202
15.3726       178300       0.20949
15.3812       178400       0.208778
15.3898       178500       0.208067
15.3984       178600       0.207357
15.407       178700       0.206648
15.4157       178800       0.205939
15.4243       178900       0.205232
15.4329       179000       0.204525
15.4415       179100       0.203818
15.4502       179200       0.203113
15.4588       179300       0.202408
15.4674       179400       0.201704
15.476       179500       0.201001
15.4846       179600       0.200299
15.4933       179700       0.199597
15.5019       179800       0.198896
15.5105       179900       0.198196
15.5191       180000       0.197496
15.5278       180100       0.196797
15.5364       180200       0.196099
15.545       180300       0.195402
15.5536       180400       0.194706
15.5622       180500       0.19401
15.5709       180600       0.193315
15.5795       180700       0.192621
15.5881       180800       0.191927
15.5967       180900       0.191234
15.6053       181000       0.190542
15.614       181100       0.189851
15.6226       181200       0.18916
15.6312       181300       0.188471
15.6398       181400       0.187781
15.6485       181500       0.187093
15.6571       181600       0.186405
15.6657       181700       0.185718
15.6743       181800       0.185032
15.6829       181900       0.184347
15.6916       182000       0.183662
15.7002       182100       0.182978
15.7088       182200       0.182295
15.7174       182300       0.181612
15.7261       182400       0.18093
15.7347       182500       0.180249
15.7433       182600       0.179569
15.7519       182700       0.178889
15.7605       182800       0.17821
15.7692       182900       0.177532
15.7778       183000       0.176854
15.7864       183100       0.176177
15.795       183200       0.175501
15.8036       183300       0.174826
15.8123       183400       0.174151
15.8209       183500       0.173477
15.8295       183600       0.172803
15.8381       183700       0.172131
15.8468       183800       0.171459
15.8554       183900       0.170788
15.864       184000       0.170117
15.8726       184100       0.169447
15.8812       184200       0.168778
15.8899       184300       0.16811
15.8985       184400       0.167442
15.9071       184500       0.166775
15.9157       184600       0.166109
15.9244       184700       0.165443
15.933       184800       0.164778
15.9416       184900       0.164114
15.9502       185000       0.163451
15.9588       185100       0.162788
15.9675       185200       0.162126
15.9761       185300       0.161464
15.9847       185400       0.160803
15.9933       185500       0.160143
16.0019       185600       0.159484
16.0106       185700       0.158825
16.0192       185800       0.158167
16.0278       185900       0.15751
16.0364       186000       0.156853
16.0451       186100       0.156197
16.0537       186200       0.155542
16.0623       186300       0.154887
16.0709       186400       0.154233
16.0795       186500       0.15358
16.0882       186600       0.152927
16.0968       186700       0.152275
16.1054       186800       0.151624
16.114       186900       0.150974
16.1227       187000       0.150324
16.1313       187100       0.149674
16.1399       187200       0.149026
16.1485       187300       0.148378
16.1571       187400       0.147731
16.1658       187500       0.147084
16.1744       187600       0.146438
16.183       187700       0.145793
16.1916       187800       0.145148
16.2002       187900       0.144504
16.2089       188000       0.143861
16.2175       188100       0.143219
16.2261       188200       0.142577
16.2347       188300       0.141935
16.2434       188400       0.141295
16.252       188500       0.140655
16.2606       188600       0.140015
16.2692       188700       0.139377
16.2778       188800       0.138739
16.2865       188900       0.138101
16.2951       189000       0.137465
16.3037       189100       0.136829
16.3123       189200       0.136193
16.321       189300       0.135558
16.3296       189400       0.134924
16.3382       189500       0.134291
16.3468       189600       0.133658
16.3554       189700       0.133026
16.3641       189800       0.132394
16.3727       189900       0.131763
16.3813       190000       0.131133
16.3899       190100       0.130504
16.3985       190200       0.129875
16.4072       190300       0.129246
16.4158       190400       0.128619
16.4244       190500       0.127992
16.433       190600       0.127365
16.4417       190700       0.126739
16.4503       190800       0.126114
16.4589       190900       0.12549
16.4675       191000       0.124866
16.4761       191100       0.124243
16.4848       191200       0.12362
16.4934       191300       0.122998
16.502       191400       0.122377
16.5106       191500       0.121756
16.5193       191600       0.121136
16.5279       191700       0.120516
16.5365       191800       0.119897
16.5451       191900       0.119279
16.5537       192000       0.118662
16.5624       192100       0.118045
16.571       192200       0.117428
16.5796       192300       0.116812
16.5882       192400       0.116197
16.5968       192500       0.115583
16.6055       192600       0.114969
16.6141       192700       0.114356
16.6227       192800       0.113743
16.6313       192900       0.113131
16.64       193000       0.112519
16.6486       193100       0.111909
16.6572       193200       0.111298
16.6658       193300       0.110689
16.6744       193400       0.11008
16.6831       193500       0.109471
16.6917       193600       0.108864
16.7003       193700       0.108256
16.7089       193800       0.10765
16.7175       193900       0.107044
16.7262       194000       0.106439
16.7348       194100       0.105834
16.7434       194200       0.10523
16.752       194300       0.104626
16.7607       194400       0.104023
16.7693       194500       0.103421
16.7779       194600       0.102819
16.7865       194700       0.102218
16.7951       194800       0.101618
16.8038       194900       0.101018
16.8124       195000       0.100418
16.821       195100       0.0998195
16.8296       195200       0.0992213
16.8383       195300       0.0986237
16.8469       195400       0.0980268
16.8555       195500       0.0974304
16.8641       195600       0.0968346
16.8727       195700       0.0962394
16.8814       195800       0.0956448
16.89       195900       0.0950507
16.8986       196000       0.0944573
16.9072       196100       0.0938644
16.9158       196200       0.0932722
16.9245       196300       0.0926805
16.9331       196400       0.0920894
16.9417       196500       0.0914989
16.9503       196600       0.090909
16.959       196700       0.0903196
16.9676       196800       0.0897308
16.9762       196900       0.0891427
16.9848       197000       0.088555
16.9934       197100       0.087968
17.0021       197200       0.0873816
17.0107       197300       0.0867957
17.0193       197400       0.0862104
17.0279       197500       0.0856257
17.0366       197600       0.0850415
17.0452       197700       0.0844579
17.0538       197800       0.0838749
17.0624       197900       0.0832925
17.071       198000       0.0827106
17.0797       198100       0.0821293
17.0883       198200       0.0815486
17.0969       198300       0.0809684
17.1055       198400       0.0803888
17.1141       198500       0.0798098
17.1228       198600       0.0792314
17.1314       198700       0.0786535
17.14       198800       0.0780761
17.1486       198900       0.0774994
17.1573       199000       0.0769232
17.1659       199100       0.0763475
17.1745       199200       0.0757724
17.1831       199300       0.0751979
17.1917       199400       0.074624
17.2004       199500       0.0740506
17.209       199600       0.0734777
17.2176       199700       0.0729054
17.2262       199800       0.0723337
17.2349       199900       0.0717625
17.2435       200000       0.0711919
17.2521       200100       0.0706218
17.2607       200200       0.0700523
17.2693       200300       0.0694834
17.278       200400       0.0689149
17.2866       200500       0.0683471
17.2952       200600       0.0677798
17.3038       200700       0.067213
17.3124       200800       0.0666468
17.3211       200900       0.0660811
17.3297       201000       0.065516
17.3383       201100       0.0649514
17.3469       201200       0.0643874
17.3556       201300       0.0638239
17.3642       201400       0.063261
17.3728       201500       0.0626986
17.3814       201600       0.0621367
17.39       201700       0.0615754
17.3987       201800       0.0610147
17.4073       201900       0.0604544
17.4159       202000       0.0598947
17.4245       202100       0.0593356
17.4332       202200       0.058777
17.4418       202300       0.0582189
17.4504       202400       0.0576614
17.459       202500       0.0571043
17.4676       202600       0.0565479
17.4763       202700       0.0559919
17.4849       202800       0.0554365
17.4935       202900       0.0548817
17.5021       203000       0.0543273
17.5107       203100       0.0537735
17.5194       203200       0.0532202
17.528       203300       0.0526675
17.5366       203400       0.0521153
17.5452       203500       0.0515636
17.5539       203600       0.0510124
17.5625       203700       0.0504618
17.5711       203800       0.0499116
17.5797       203900       0.049362
17.5883       204000       0.048813
17.597       204100       0.0482644
17.6056       204200       0.0477164
17.6142       204300       0.0471689
17.6228       204400       0.0466219
17.6315       204500       0.0460755
17.6401       204600       0.0455296
17.6487       204700       0.0449841
17.6573       204800       0.0444392
17.6659       204900       0.0438949
17.6746       205000       0.043351
17.6832       205100       0.0428077
17.6918       205200       0.0422648
17.7004       205300       0.0417225
17.709       205400       0.0411807
17.7177       205500       0.0406394
17.7263       205600       0.0400986
17.7349       205700       0.0395584
17.7435       205800       0.0390186
17.7522       205900       0.0384794
17.7608       206000       0.0379407
17.7694       206100       0.0374024
17.778       206200       0.0368647
17.7866       206300       0.0363275
17.7953       206400       0.0357908
17.8039       206500       0.0352546
17.8125       206600       0.0347189
17.8211       206700       0.0341838
17.8298       206800       0.0336491
17.8384       206900       0.0331149
17.847       207000       0.0325812
17.8556       207100       0.0320481
17.8642       207200       0.0315154
17.8729       207300       0.0309832
17.8815       207400       0.0304516
17.8901       207500       0.0299204
17.8987       207600       0.0293897
17.9073       207700       0.0288596
17.916       207800       0.0283299
17.9246       207900       0.0278007
17.9332       208000       0.027272
17.9418       208100       0.0267439
17.9505       208200       0.0262162
17.9591       208300       0.025689
17.9677       208400       0.0251623
17.9763       208500       0.0246361
17.9849       208600       0.0241104
17.9936       208700       0.0235851
18.0022       208800       0.0230604
18.0108       208900       0.0225362
18.0194       209000       0.0220124
18.0281       209100       0.0214891
18.0367       209200       0.0209664
18.0453       209300       0.0204441
18.0539       209400       0.0199223
18.0625       209500       0.0194009
18.0712       209600       0.0188801
18.0798       209700       0.0183598
18.0884       209800       0.0178399
18.097       209900       0.0173205
18.1056       210000       0.0168016
18.1143       210100       0.0162832
18.1229       210200       0.0157653
18.1315       210300       0.0152478
18.1401       210400       0.0147308
18.1488       210500       0.0142144
18.1574       210600       0.0136983
18.166       210700       0.0131828
18.1746       210800       0.0126677
18.1832       210900       0.0121532
18.1919       211000       0.0116391
18.2005       211100       0.0111254
18.2091       211200       0.0106123
18.2177       211300       0.0100996
18.2264       211400       0.00958738
18.235       211500       0.00907565
18.2436       211600       0.00856439
18.2522       211700       0.0080536
18.2608       211800       0.00754328
18.2695       211900       0.00703343
18.2781       212000       0.00652405
18.2867       212100       0.00601515
18.2953       212200       0.00550671
18.3039       212300       0.00499873
18.3126       212400       0.00449123
18.3212       212500       0.00398419
18.3298       212600       0.00347762
18.3384       212700       0.00297151
18.3471       212800       0.00246587
18.3557       212900       0.0019607
18.3643       213000       0.00145598
18.3729       213100       0.000951733
18.3815       213200       0.000447945
18.3902       213300       -5.53809e-05
18.3988       213400       -0.000558246
18.4074       213500       -0.00106065
18.416       213600       -0.00156259
18.4247       213700       -0.00206408
18.4333       213800       -0.00256511
18.4419       213900       -0.00306567
18.4505       214000       -0.00356578
18.4591       214100       -0.00406544
18.4678       214200       -0.00456464
18.4764       214300       -0.00506338
18.485       214400       -0.00556166
18.4936       214500       -0.0060595
18.5022       214600       -0.00655688
18.5109       214700       -0.0070538
18.5195       214800       -0.00755027
18.5281       214900       -0.00804629
18.5367       215000       -0.00854186
18.5454       215100       -0.00903698
18.554       215200       -0.00953165
18.5626       215300       -0.0100259
18.5712       215400       -0.0105196
18.5798       215500       -0.011013
18.5885       215600       -0.0115058
18.5971       215700       -0.0119983
18.6057       215800       -0.0124902
18.6143       215900       -0.0129818
18.623       216000       -0.0134729
18.6316       216100       -0.0139635
18.6402       216200       -0.0144537
18.6488       216300       -0.0149434
18.6574       216400       -0.0154328
18.6661       216500       -0.0159216
18.6747       216600       -0.0164101
18.6833       216700       -0.016898
18.6919       216800       -0.0173856
18.7005       216900       -0.0178727
18.7092       217000       -0.0183594
18.7178       217100       -0.0188456
18.7264       217200       -0.0193314
18.735       217300       -0.0198167
18.7437       217400       -0.0203016
18.7523       217500       -0.0207861
18.7609       217600       -0.0212701
18.7695       217700       -0.0217537
18.7781       217800       -0.0222369
18.7868       217900       -0.0227196
18.7954       218000       -0.0232019
18.804       218100       -0.0236838
18.8126       218200       -0.0241652
18.8213       218300       -0.0246462
18.8299       218400       -0.0251268
18.8385       218500       -0.0256069
18.8471       218600       -0.0260866
18.8557       218700       -0.0265659
18.8644       218800       -0.0270448
18.873       218900       -0.0275232
18.8816       219000       -0.0280012
18.8902       219100       -0.0284787
18.8988       219200       -0.0289559
18.9075       219300       -0.0294326
18.9161       219400       -0.0299089
18.9247       219500       -0.0303847
18.9333       219600       -0.0308602
18.942       219700       -0.0313352
18.9506       219800       -0.0318098
18.9592       219900       -0.0322839
18.9678       220000       -0.0327577
18.9764       220100       -0.033231
18.9851       220200       -0.0337039
18.9937       220300       -0.0341763
19.0023       220400       -0.0346484
19.0109       220500       -0.03512
19.0196       220600       -0.0355912
19.0282       220700       -0.036062
19.0368       220800       -0.0365324
19.0454       220900       -0.0370024
19.054       221000       -0.0374719
19.0627       221100       -0.037941
19.0713       221200       -0.0384097
19.0799       221300       -0.038878
19.0885       221400       -0.0393459
19.0971       221500       -0.0398133
19.1058       221600       -0.0402804
19.1144       221700       -0.040747
19.123       221800       -0.0412132
19.1316       221900       -0.0416791
19.1403       222000       -0.0421445
19.1489       222100       -0.0426094
19.1575       222200       -0.043074
19.1661       222300       -0.0435382
19.1747       222400       -0.0440019
19.1834       222500       -0.0444653
19.192       222600       -0.0449282
19.2006       222700       -0.0453907
19.2092       222800       -0.0458528
19.2179       222900       -0.0463146
19.2265       223000       -0.0467759
19.2351       223100       -0.0472368
19.2437       223200       -0.0476973
19.2523       223300       -0.0481573
19.261       223400       -0.048617
19.2696       223500       -0.0490763
19.2782       223600       -0.0495352
19.2868       223700       -0.0499936
19.2954       223800       -0.0504517
19.3041       223900       -0.0509094
19.3127       224000       -0.0513666
19.3213       224100       -0.0518235
19.3299       224200       -0.05228
19.3386       224300       -0.052736
19.3472       224400       -0.0531917
19.3558       224500       -0.053647
19.3644       224600       -0.0541018
19.373       224700       -0.0545563
19.3817       224800       -0.0550104
19.3903       224900       -0.0554641
19.3989       225000       -0.0559173
19.4075       225100       -0.0563702
19.4162       225200       -0.0568227
19.4248       225300       -0.0572748
19.4334       225400       -0.0577265
19.442       225500       -0.0581778
19.4506       225600       -0.0586287
19.4593       225700       -0.0590792
19.4679       225800       -0.0595293
19.4765       225900       -0.0599791
19.4851       226000       -0.0604284
19.4937       226100       -0.0608774
19.5024       226200       -0.0613259
19.511       226300       -0.0617741
19.5196       226400       -0.0622219
19.5282       226500       -0.0626693
19.5369       226600       -0.0631163
19.5455       226700       -0.0635629
19.5541       226800       -0.0640091
19.5627       226900       -0.0644549
19.5713       227000       -0.0649004
19.58       227100       -0.0653454
19.5886       227200       -0.0657901
19.5972       227300       -0.0662344
19.6058       227400       -0.0666783
19.6145       227500       -0.0671219
19.6231       227600       -0.067565
19.6317       227700       -0.0680078
19.6403       227800       -0.0684501
19.6489       227900       -0.0688921
19.6576       228000       -0.0693337
19.6662       228100       -0.069775
19.6748       228200       -0.0702158
19.6834       228300       -0.0706563
19.692       228400       -0.0710964
19.7007       228500       -0.0715361
19.7093       228600       -0.0719754
19.7179       228700       -0.0724144
19.7265       228800       -0.072853
19.7352       228900       -0.0732912
19.7438       229000       -0.073729
19.7524       229100       -0.0741664
19.761       229200       -0.0746035
19.7696       229300       -0.0750402
19.7783       229400       -0.0754765
19.7869       229500       -0.0759124
19.7955       229600       -0.076348
19.8041       229700       -0.0767832
19.8128       229800       -0.077218
19.8214       229900       -0.0776525
19.83       230000       -0.0780866
19.8386       230100       -0.0785203
19.8472       230200       -0.0789536
19.8559       230300       -0.0793866
19.8645       230400       -0.0798191
19.8731       230500       -0.0802514
19.8817       230600       -0.0806832
19.8903       230700       -0.0811147
19.899       230800       -0.0815458
19.9076       230900       -0.0819766
19.9162       231000       -0.0824069
19.9248       231100       -0.082837
19.9335       231200       -0.0832666
19.9421       231300       -0.0836959
19.9507       231400       -0.0841248
19.9593       231500       -0.0845533
19.9679       231600       -0.0849815
19.9766       231700       -0.0854093
19.9852       231800       -0.0858368
19.9938       231900       -0.0862639
20.0024       232000       -0.0866906
20.0111       232100       -0.087117
20.0197       232200       -0.087543
20.0283       232300       -0.0879686
20.0369       232400       -0.0883939
20.0455       232500       -0.0888188
20.0542       232600       -0.0892433
20.0628       232700       -0.0896675
20.0714       232800       -0.0900914
20.08       232900       -0.0905149
20.0886       233000       -0.090938
20.0973       233100       -0.0913607
20.1059       233200       -0.0917831
20.1145       233300       -0.0922052
20.1231       233400       -0.0926269
20.1318       233500       -0.0930482
20.1404       233600       -0.0934692
20.149       233700       -0.0938898
20.1576       233800       -0.09431
20.1662       233900       -0.09473
20.1749       234000       -0.0951495
20.1835       234100       -0.0955687
20.1921       234200       -0.0959876
20.2007       234300       -0.096406
20.2094       234400       -0.0968242
20.218       234500       -0.097242
20.2266       234600       -0.0976594
20.2352       234700       -0.0980765
20.2438       234800       -0.0984932
20.2525       234900       -0.0989096
20.2611       235000       -0.0993256
20.2697       235100       -0.0997413
20.2783       235200       -0.100157
20.2869       235300       -0.100572
20.2956       235400       -0.100986
20.3042       235500       -0.101401
20.3128       235600       -0.101815
20.3214       235700       -0.102228
20.3301       235800       -0.102641
20.3387       235900       -0.103054
20.3473       236000       -0.103467
20.3559       236100       -0.103879
20.3645       236200       -0.104291
20.3732       236300       -0.104702
20.3818       236400       -0.105114
20.3904       236500       -0.105524
20.399       236600       -0.105935
20.4077       236700       -0.106345
20.4163       236800       -0.106755
20.4249       236900       -0.107164
20.4335       237000       -0.107573
20.4421       237100       -0.107982
20.4508       237200       -0.108391
20.4594       237300       -0.108799
20.468       237400       -0.109207
20.4766       237500       -0.109614
20.4852       237600       -0.110021
20.4939       237700       -0.110428
20.5025       237800       -0.110834
20.5111       237900       -0.11124
20.5197       238000       -0.111646
20.5284       238100       -0.112051
20.537       238200       -0.112456
20.5456       238300       -0.112861
20.5542       238400       -0.113265
20.5628       238500       -0.11367
20.5715       238600       -0.114073
20.5801       238700       -0.114477
20.5887       238800       -0.11488
20.5973       238900       -0.115282
20.606       239000       -0.115685
20.6146       239100       -0.116087
20.6232       239200       -0.116488
20.6318       239300       -0.11689
20.6404       239400       -0.117291
20.6491       239500       -0.117692
20.6577       239600       -0.118092
20.6663       239700       -0.118492
20.6749       239800       -0.118892
20.6835       239900       -0.119291
20.6922       240000       -0.11969
20.7008       240100       -0.120089
20.7094       240200       -0.120487
20.718       240300       -0.120885
20.7267       240400       -0.121283
20.7353       240500       -0.121681
20.7439       240600       -0.122078
20.7525       240700       -0.122474
20.7611       240800       -0.122871
20.7698       240900       -0.123267
20.7784       241000       -0.123663
20.787       241100       -0.124058
20.7956       241200       -0.124453
20.8043       241300       -0.124848
20.8129       241400       -0.125243
20.8215       241500       -0.125637
20.8301       241600       -0.126031
20.8387       241700       -0.126424
20.8474       241800       -0.126817
20.856       241900       -0.12721
20.8646       242000       -0.127603
20.8732       242100       -0.127995
20.8818       242200       -0.128387
20.8905       242300       -0.128778
20.8991       242400       -0.12917
20.9077       242500       -0.129561
20.9163       242600       -0.129951
20.925       242700       -0.130342
20.9336       242800       -0.130731
20.9422       242900       -0.131121
20.9508       243000       -0.131511
20.9594       243100       -0.1319
20.9681       243200       -0.132288
20.9767       243300       -0.132677
20.9853       243400       -0.133065
20.9939       243500       -0.133452
21.0026       243600       -0.13384
21.0112       243700       -0.134227
21.0198       243800       -0.134614
21.0284       243900       -0.135
21.037       244000       -0.135387
21.0457       244100       -0.135772
21.0543       244200       -0.136158
21.0629       244300       -0.136543
21.0715       244400       -0.136928
21.0801       244500       -0.137313
21.0888       244600       -0.137697
21.0974       244700       -0.138081
21.106       244800       -0.138465
21.1146       244900       -0.138848
21.1233       245000       -0.139231
21.1319       245100       -0.139614
21.1405       245200       -0.139996
21.1491       245300       -0.140379
21.1577       245400       -0.14076
21.1664       245500       -0.141142
21.175       245600       -0.141523
21.1836       245700       -0.141904
21.1922       245800       -0.142285
21.2009       245900       -0.142665
21.2095       246000       -0.143045
21.2181       246100       -0.143425
21.2267       246200       -0.143804
21.2353       246300       -0.144183
21.244       246400       -0.144562
21.2526       246500       -0.14494
21.2612       246600       -0.145318
21.2698       246700       -0.145696
21.2784       246800       -0.146074
21.2871       246900       -0.146451
21.2957       247000       -0.146828
21.3043       247100       -0.147204
21.3129       247200       -0.147581
21.3216       247300       -0.147957
21.3302       247400       -0.148333
21.3388       247500       -0.148708
21.3474       247600       -0.149083
21.356       247700       -0.149458
21.3647       247800       -0.149832
21.3733       247900       -0.150207
21.3819       248000       -0.150581
21.3905       248100       -0.150954
21.3992       248200       -0.151327
21.4078       248300       -0.1517
21.4164       248400       -0.152073
21.425       248500       -0.152446
21.4336       248600       -0.152818
21.4423       248700       -0.15319
21.4509       248800       -0.153561
21.4595       248900       -0.153932
21.4681       249000       -0.154303
21.4767       249100       -0.154674
21.4854       249200       -0.155044
21.494       249300       -0.155414
21.5026       249400       -0.155784
21.5112       249500       -0.156153
21.5199       249600       -0.156523
21.5285       249700       -0.156891
21.5371       249800       -0.15726
21.5457       249900       -0.157628
21.5543       250000       -0.157996
21.563       250100       -0.158364
21.5716       250200       -0.158731
21.5802       250300       -0.159098
21.5888       250400       -0.159465
21.5975       250500       -0.159832
21.6061       250600       -0.160198
21.6147       250700       -0.160564
21.6233       250800       -0.16093
21.6319       250900       -0.161295
21.6406       251000       -0.16166
21.6492       251100       -0.162025
21.6578       251200       -0.162389
21.6664       251300       -0.162753
21.675       251400       -0.163117
21.6837       251500       -0.163481
21.6923       251600       -0.163844
21.7009       251700       -0.164207
21.7095       251800       -0.16457
21.7182       251900       -0.164933
21.7268       252000       -0.165295
21.7354       252100       -0.165657
21.744       252200       -0.166018
21.7526       252300       -0.16638
21.7613       252400       -0.166741
21.7699       252500       -0.167101
21.7785       252600       -0.167462
21.7871       252700       -0.167822
21.7958       252800       -0.168182
21.8044       252900       -0.168542
21.813       253000       -0.168901
21.8216       253100       -0.16926
21.8302       253200       -0.169619
21.8389       253300       -0.169977
21.8475       253400       -0.170336
21.8561       253500       -0.170694
21.8647       253600       -0.171051
21.8733       253700       -0.171409
21.882       253800       -0.171766
21.8906       253900       -0.172122
21.8992       254000       -0.172479
21.9078       254100       -0.172835
21.9165       254200       -0.173191
21.9251       254300       -0.173547
21.9337       254400       -0.173902
21.9423       254500       -0.174257
21.9509       254600       -0.174612
21.9596       254700       -0.174967
21.9682       254800       -0.175321
21.9768       254900       -0.175675
21.9854       255000       -0.176029
21.9941       255100       -0.176382
22.0027       255200       -0.176736
22.0113       255300       -0.177088
22.0199       255400       -0.177441
22.0285       255500       -0.177793
22.0372       255600       -0.178146
22.0458       255700       -0.178497
22.0544       255800       -0.178849
22.063       255900       -0.1792
22.0716       256000       -0.179551
22.0803       256100       -0.179902
22.0889       256200       -0.180252
22.0975       256300       -0.180602
22.1061       256400       -0.180952
22.1148       256500       -0.181302
22.1234       256600       -0.181651
22.132       256700       -0.182
22.1406       256800       -0.182349
22.1492       256900       -0.182698
22.1579       257000       -0.183046
22.1665       257100       -0.183394
22.1751       257200       -0.183742
22.1837       257300       -0.184089
22.1924       257400       -0.184436
22.201       257500       -0.184783
22.2096       257600       -0.18513
22.2182       257700       -0.185476
22.2268       257800       -0.185822
22.2355       257900       -0.186168
22.2441       258000       -0.186514
22.2527       258100       -0.186859
22.2613       258200       -0.187204
22.2699       258300       -0.187549
22.2786       258400       -0.187894
22.2872       258500       -0.188238
22.2958       258600       -0.188582
22.3044       258700       -0.188925
22.3131       258800       -0.189269
22.3217       258900       -0.189612
22.3303       259000       -0.189955
22.3389       259100       -0.190298
22.3475       259200       -0.19064
22.3562       259300       -0.190982
22.3648       259400       -0.191324
22.3734       259500       -0.191666
22.382       259600       -0.192007
22.3907       259700       -0.192348
22.3993       259800       -0.192689
22.4079       259900       -0.193029
22.4165       260000       -0.19337
22.4251       260100       -0.19371
22.4338       260200       -0.194049
22.4424       260300       -0.194389
22.451       260400       -0.194728
22.4596       260500       -0.195067
22.4682       260600       -0.195406
22.4769       260700       -0.195744
22.4855       260800       -0.196082
22.4941       260900       -0.19642
22.5027       261000       -0.196758
22.5114       261100       -0.197096
22.52       261200       -0.197433
22.5286       261300       -0.19777
22.5372       261400       -0.198106
22.5458       261500       -0.198443
22.5545       261600       -0.198779
22.5631       261700       -0.199115
22.5717       261800       -0.19945
22.5803       261900       -0.199786
22.589       262000       -0.200121
22.5976       262100       -0.200456
22.6062       262200       -0.20079
22.6148       262300       -0.201124
22.6234       262400       -0.201459
22.6321       262500       -0.201792
22.6407       262600       -0.202126
22.6493       262700       -0.202459
22.6579       262800       -0.202792
22.6665       262900       -0.203125
22.6752       263000       -0.203458
22.6838       263100       -0.20379
22.6924       263200       -0.204122
22.701       263300       -0.204454
22.7097       263400       -0.204785
22.7183       263500       -0.205117
22.7269       263600       -0.205448
22.7355       263700       -0.205779
22.7441       263800       -0.206109
22.7528       263900       -0.206439
22.7614       264000       -0.206769
22.77       264100       -0.207099
22.7786       264200       -0.207429
22.7873       264300       -0.207758
22.7959       264400       -0.208087
22.8045       264500       -0.208416
22.8131       264600       -0.208744
22.8217       264700       -0.209073
22.8304       264800       -0.209401
22.839       264900       -0.209729
22.8476       265000       -0.210056
22.8562       265100       -0.210383
22.8648       265200       -0.21071
22.8735       265300       -0.211037
22.8821       265400       -0.211364
22.8907       265500       -0.21169
22.8993       265600       -0.212016
22.908       265700       -0.212342
22.9166       265800       -0.212668
22.9252       265900       -0.212993
22.9338       266000       -0.213318
22.9424       266100       -0.213643
22.9511       266200       -0.213967
22.9597       266300       -0.214292
22.9683       266400       -0.214616
22.9769       266500       -0.21494
22.9856       266600       -0.215263
22.9942       266700       -0.215587
23.0028       266800       -0.21591
23.0114       266900       -0.216233
23.02       267000       -0.216555
23.0287       267100       -0.216878
23.0373       267200       -0.2172
23.0459       267300       -0.217522
23.0545       267400       -0.217844
23.0631       267500       -0.218165
23.0718       267600       -0.218486
23.0804       267700       -0.218807
23.089       267800       -0.219128
23.0976       267900       -0.219448
23.1063       268000       -0.219769
23.1149       268100       -0.220089
23.1235       268200       -0.220408
23.1321       268300       -0.220728
23.1407       268400       -0.221047
23.1494       268500       -0.221366
23.158       268600       -0.221685
23.1666       268700       -0.222004
23.1752       268800       -0.222322
23.1839       268900       -0.22264
23.1925       269000       -0.222958
23.2011       269100       -0.223275
23.2097       269200       -0.223593
23.2183       269300       -0.22391
23.227       269400       -0.224227
23.2356       269500       -0.224543
23.2442       269600       -0.22486
23.2528       269700       -0.225176
23.2614       269800       -0.225492
23.2701       269900       -0.225808
23.2787       270000       -0.226123
23.2873       270100       -0.226439
23.2959       270200       -0.226754
23.3046       270300       -0.227068
23.3132       270400       -0.227383
23.3218       270500       -0.227697
23.3304       270600       -0.228011
23.339       270700       -0.228325
23.3477       270800       -0.228639
23.3563       270900       -0.228952
23.3649       271000       -0.229265
23.3735       271100       -0.229578
23.3822       271200       -0.229891
23.3908       271300       -0.230203
23.3994       271400       -0.230516
23.408       271500       -0.230828
23.4166       271600       -0.231139
23.4253       271700       -0.231451
23.4339       271800       -0.231762
23.4425       271900       -0.232073
23.4511       272000       -0.232384
23.4597       272100       -0.232695
23.4684       272200       -0.233005
23.477       272300       -0.233315
23.4856       272400       -0.233625
23.4942       272500       -0.233935
23.5029       272600       -0.234244
23.5115       272700       -0.234554
23.5201       272800       -0.234863
23.5287       272900       -0.235171
23.5373       273000       -0.23548
23.546       273100       -0.235788
23.5546       273200       -0.236096
23.5632       273300       -0.236404
23.5718       273400       -0.236712
23.5805       273500       -0.237019
23.5891       273600       -0.237326
23.5977       273700       -0.237633
23.6063       273800       -0.23794
23.6149       273900       -0.238247
23.6236       274000       -0.238553
23.6322       274100       -0.238859
23.6408       274200       -0.239165
23.6494       274300       -0.23947
23.658       274400       -0.239776
23.6667       274500       -0.240081
23.6753       274600       -0.240386
23.6839       274700       -0.240691
23.6925       274800       -0.240995
23.7012       274900       -0.241299
23.7098       275000       -0.241604
23.7184       275100       -0.241907
23.727       275200       -0.242211
23.7356       275300       -0.242514
23.7443       275400       -0.242818
23.7529       275500       -0.24312
23.7615       275600       -0.243423
23.7701       275700       -0.243726
23.7788       275800       -0.244028
23.7874       275900       -0.24433
23.796       276000       -0.244632
23.8046       276100       -0.244933
23.8132       276200       -0.245235
23.8219       276300       -0.245536
23.8305       276400       -0.245837
23.8391       276500       -0.246138
23.8477       276600       -0.246438
23.8563       276700       -0.246739
23.865       276800       -0.247039
23.8736       276900       -0.247339
23.8822       277000       -0.247638
23.8908       277100       -0.247938
23.8995       277200       -0.248237
23.9081       277300       -0.248536
23.9167       277400       -0.248835
23.9253       277500       -0.249133
23.9339       277600       -0.249431
23.9426       277700       -0.24973
23.9512       277800       -0.250028
23.9598       277900       -0.250325
23.9684       278000       -0.250623
23.9771       278100       -0.25092
23.9857       278200       -0.251217
23.9943       278300       -0.251514
24.0029       278400       -0.25181
24.0115       278500       -0.252107
24.0202       278600       -0.252403
24.0288       278700       -0.252699
24.0374       278800       -0.252995
24.046       278900       -0.25329
24.0546       279000       -0.253586
24.0633       279100       -0.253881
24.0719       279200       -0.254176
24.0805       279300       -0.25447
24.0891       279400       -0.254765
24.0978       279500       -0.255059
24.1064       279600       -0.255353
24.115       279700       -0.255647
24.1236       279800       -0.255941
24.1322       279900       -0.256234
24.1409       280000       -0.256527
24.1495       280100       -0.25682
24.1581       280200       -0.257113
24.1667       280300       -0.257406
24.1754       280400       -0.257698
24.184       280500       -0.25799
24.1926       280600       -0.258282
24.2012       280700       -0.258574
24.2098       280800       -0.258865
24.2185       280900       -0.259157
24.2271       281000       -0.259448
24.2357       281100       -0.259739
24.2443       281200       -0.260029
24.2529       281300       -0.26032
24.2616       281400       -0.26061
24.2702       281500       -0.2609
24.2788       281600       -0.26119
24.2874       281700       -0.26148
24.2961       281800       -0.261769
24.3047       281900       -0.262058
24.3133       282000       -0.262347
24.3219       282100       -0.262636
24.3305       282200       -0.262925
24.3392       282300       -0.263213
24.3478       282400       -0.263501
24.3564       282500       -0.263789
24.365       282600       -0.264077
24.3737       282700       -0.264365
24.3823       282800       -0.264652
24.3909       282900       -0.264939
24.3995       283000       -0.265226
24.4081       283100       -0.265513
24.4168       283200       -0.265799
24.4254       283300       -0.266086
24.434       283400       -0.266372
24.4426       283500       -0.266658
24.4512       283600       -0.266944
24.4599       283700       -0.267229
24.4685       283800       -0.267514
24.4771       283900       -0.2678
24.4857       284000       -0.268084
24.4944       284100       -0.268369
24.503       284200       -0.268654
24.5116       284300       -0.268938
24.5202       284400       -0.269222
24.5288       284500       -0.269506
24.5375       284600       -0.26979
24.5461       284700       -0.270073
24.5547       284800       -0.270357
24.5633       284900       -0.27064
24.572       285000       -0.270923
24.5806       285100       -0.271205
24.5892       285200       -0.271488
24.5978       285300       -0.27177
24.6064       285400       -0.272052
24.6151       285500       -0.272334
24.6237       285600       -0.272616
24.6323       285700       -0.272897
24.6409       285800       -0.273179
24.6495       285900       -0.27346
24.6582       286000       -0.273741
24.6668       286100       -0.274021
24.6754       286200       -0.274302
24.684       286300       -0.274582
24.6927       286400       -0.274862
24.7013       286500       -0.275142
24.7099       286600       -0.275422
24.7185       286700       -0.275701
24.7271       286800       -0.275981
24.7358       286900       -0.27626
24.7444       287000       -0.276539
24.753       287100       -0.276817
24.7616       287200       -0.277096
24.7703       287300       -0.277374
24.7789       287400       -0.277652
24.7875       287500       -0.27793
24.7961       287600       -0.278208
24.8047       287700       -0.278486
24.8134       287800       -0.278763
24.822       287900       -0.27904
24.8306       288000       -0.279317
24.8392       288100       -0.279594
24.8478       288200       -0.27987
24.8565       288300       -0.280147
24.8651       288400       -0.280423
24.8737       288500       -0.280699
24.8823       288600       -0.280975
24.891       288700       -0.28125
24.8996       288800       -0.281526
24.9082       288900       -0.281801
24.9168       289000       -0.282076
24.9254       289100       -0.282351
24.9341       289200       -0.282626
24.9427       289300       -0.2829
24.9513       289400       -0.283174
24.9599       289500       -0.283448
24.9686       289600       -0.283722
24.9772       289700       -0.283996
24.9858       289800       -0.284269
24.9944       289900       -0.284543
25.003       290000       -0.284816
25.0117       290100       -0.285089
25.0203       290200       -0.285361
25.0289       290300       -0.285634
25.0375       290400       -0.285906
25.0461       290500       -0.286178
25.0548       290600       -0.28645
25.0634       290700       -0.286722
25.072       290800       -0.286994
25.0806       290900       -0.287265
25.0893       291000       -0.287536
25.0979       291100       -0.287807
25.1065       291200       -0.288078
25.1151       291300       -0.288349
25.1237       291400       -0.288619
25.1324       291500       -0.28889
25.141       291600       -0.28916
25.1496       291700       -0.28943
25.1582       291800       -0.289699
25.1669       291900       -0.289969
25.1755       292000       -0.290238
25.1841       292100       -0.290507
25.1927       292200       -0.290776
25.2013       292300       -0.291045
25.21       292400       -0.291314
25.2186       292500       -0.291582
25.2272       292600       -0.29185
25.2358       292700       -0.292118
25.2444       292800       -0.292386
25.2531       292900       -0.292654
25.2617       293000       -0.292921
25.2703       293100       -0.293188
25.2789       293200       -0.293455
25.2876       293300       -0.293722
25.2962       293400       -0.293989
25.3048       293500       -0.294256
25.3134       293600       -0.294522
25.322       293700       -0.294788
25.3307       293800       -0.295054
25.3393       293900       -0.29532
25.3479       294000       -0.295586
25.3565       294100       -0.295851
25.3652       294200       -0.296116
25.3738       294300       -0.296381
25.3824       294400       -0.296646
25.391       294500       -0.296911
25.3996       294600       -0.297175
25.4083       294700       -0.29744
25.4169       294800       -0.297704
25.4255       294900       -0.297968
25.4341       295000       -0.298232
25.4427       295100       -0.298495
25.4514       295200       -0.298759
25.46       295300       -0.299022
25.4686       295400       -0.299285
25.4772       295500       -0.299548
25.4859       295600       -0.299811
25.4945       295700       -0.300073
25.5031       295800       -0.300335
25.5117       295900       -0.300598
25.5203       296000       -0.30086
25.529       296100       -0.301121
25.5376       296200       -0.301383
25.5462       296300       -0.301644
25.5548       296400       -0.301906
25.5635       296500       -0.302167
25.5721       296600       -0.302428
25.5807       296700       -0.302688
25.5893       296800       -0.302949
25.5979       296900       -0.303209
25.6066       297000       -0.30347
25.6152       297100       -0.30373
25.6238       297200       -0.303989
25.6324       297300       -0.304249
25.641       297400       -0.304509
25.6497       297500       -0.304768
25.6583       297600       -0.305027
25.6669       297700       -0.305286
25.6755       297800       -0.305545
25.6842       297900       -0.305803
25.6928       298000       -0.306062
25.7014       298100       -0.30632
25.71       298200       -0.306578
25.7186       298300       -0.306836
25.7273       298400       -0.307094
25.7359       298500       -0.307351
25.7445       298600       -0.307608
25.7531       298700       -0.307866
25.7618       298800       -0.308123
25.7704       298900       -0.30838
25.779       299000       -0.308636
25.7876       299100       -0.308893
25.7962       299200       -0.309149
25.8049       299300       -0.309405
25.8135       299400       -0.309661
25.8221       299500       -0.309917
25.8307       299600       -0.310172
25.8393       299700       -0.310428
25.848       299800       -0.310683
25.8566       299900       -0.310938
25.8652       300000       -0.311193
25.8738       300100       -0.311448
25.8825       300200       -0.311702
25.8911       300300       -0.311957
25.8997       300400       -0.312211
25.9083       300500       -0.312465
25.9169       300600       -0.312719
25.9256       300700       -0.312973
25.9342       300800       -0.313226
25.9428       300900       -0.31348
25.9514       301000       -0.313733
25.9601       301100       -0.313986
25.9687       301200       -0.314239
25.9773       301300       -0.314491
25.9859       301400       -0.314744
25.9945       301500       -0.314996
26.0032       301600       -0.315248
26.0118       301700       -0.3155
26.0204       301800       -0.315752
26.029       301900       -0.316004
26.0376       302000       -0.316255
26.0463       302100       -0.316507
26.0549       302200       -0.316758
26.0635       302300       -0.317009
26.0721       302400       -0.31726
26.0808       302500       -0.31751
26.0894       302600       -0.317761
26.098       302700       -0.318011
26.1066       302800       -0.318261
26.1152       302900       -0.318511
26.1239       303000       -0.318761
26.1325       303100       -0.319011
26.1411       303200       -0.31926
26.1497       303300       -0.319509
26.1584       303400       -0.319759
26.167       303500       -0.320008
26.1756       303600       -0.320256
26.1842       303700       -0.320505
26.1928       303800       -0.320753
26.2015       303900       -0.321002
26.2101       304000       -0.32125
26.2187       304100       -0.321498
26.2273       304200       -0.321746
26.2359       304300       -0.321993
26.2446       304400       -0.322241
26.2532       304500       -0.322488
26.2618       304600       -0.322735
26.2704       304700       -0.322982
26.2791       304800       -0.323229
26.2877       304900       -0.323475
26.2963       305000       -0.323722
26.3049       305100       -0.323968
26.3135       305200       -0.324214
26.3222       305300       -0.32446
26.3308       305400       -0.324706
26.3394       305500       -0.324952
26.348       305600       -0.325197
26.3567       305700       -0.325443
26.3653       305800       -0.325688
26.3739       305900       -0.325933
26.3825       306000       -0.326178
26.3911       306100       -0.326422
26.3998       306200       -0.326667
26.4084       306300       -0.326911
26.417       306400       -0.327155
26.4256       306500       -0.327399
26.4342       306600       -0.327643
26.4429       306700       -0.327887
26.4515       306800       -0.32813
26.4601       306900       -0.328374
26.4687       307000       -0.328617
26.4774       307100       -0.32886
26.486       307200       -0.329103
26.4946       307300       -0.329345
26.5032       307400       -0.329588
26.5118       307500       -0.32983
26.5205       307600       -0.330073
26.5291       307700       -0.330315
26.5377       307800       -0.330557
26.5463       307900       -0.330798
26.555       308000       -0.33104
26.5636       308100       -0.331281
26.5722       308200       -0.331523
26.5808       308300       -0.331764
26.5894       308400       -0.332005
26.5981       308500       -0.332245
26.6067       308600       -0.332486
26.6153       308700       -0.332727
26.6239       308800       -0.332967
26.6325       308900       -0.333207
26.6412       309000       -0.333447
26.6498       309100       -0.333687
26.6584       309200       -0.333927
26.667       309300       -0.334166
26.6757       309400       -0.334405
26.6843       309500       -0.334645
26.6929       309600       -0.334884
26.7015       309700       -0.335123
26.7101       309800       -0.335361
26.7188       309900       -0.3356
26.7274       310000       -0.335838
26.736       310100       -0.336076
26.7446       310200       -0.336315
26.7533       310300       -0.336552
26.7619       310400       -0.33679
26.7705       310500       -0.337028
26.7791       310600       -0.337265
26.7877       310700       -0.337503
26.7964       310800       -0.33774
26.805       310900       -0.337977
26.8136       311000       -0.338214
26.8222       311100       -0.33845
26.8308       311200       -0.338687
26.8395       311300       -0.338923
26.8481       311400       -0.339159
26.8567       311500       -0.339396
26.8653       311600       -0.339631
26.874       311700       -0.339867
26.8826       311800       -0.340103
26.8912       311900       -0.340338
26.8998       312000       -0.340574
26.9084       312100       -0.340809
26.9171       312200       -0.341044
26.9257       312300       -0.341278
26.9343       312400       -0.341513
26.9429       312500       -0.341748
26.9516       312600       -0.341982
26.9602       312700       -0.342216
26.9688       312800       -0.34245
26.9774       312900       -0.342684
26.986       313000       -0.342918
26.9947       313100       -0.343152
27.0033       313200       -0.343385
27.0119       313300       -0.343618
27.0205       313400       -0.343851
27.0291       313500       -0.344084
27.0378       313600       -0.344317
27.0464       313700       -0.34455
27.055       313800       -0.344782
27.0636       313900       -0.345015
27.0723       314000       -0.345247
27.0809       314100       -0.345479
27.0895       314200       -0.345711
27.0981       314300       -0.345943
27.1067       314400       -0.346174
27.1154       314500       -0.346406
27.124       314600       -0.346637
27.1326       314700       -0.346868
27.1412       314800       -0.347099
27.1499       314900       -0.34733
27.1585       315000       -0.347561
27.1671       315100       -0.347792
27.1757       315200       -0.348022
27.1843       315300       -0.348252
27.193       315400       -0.348482
27.2016       315500       -0.348712
27.2102       315600       -0.348942
27.2188       315700       -0.349172
27.2274       315800       -0.349401
27.2361       315900       -0.349631
27.2447       316000       -0.34986
27.2533       316100       -0.350089
27.2619       316200       -0.350318
27.2706       316300       -0.350547
27.2792       316400       -0.350775
27.2878       316500       -0.351004
27.2964       316600       -0.351232
27.305       316700       -0.35146
27.3137       316800       -0.351688
27.3223       316900       -0.351916
27.3309       317000       -0.352144
27.3395       317100       -0.352372
27.3482       317200       -0.352599
27.3568       317300       -0.352826
27.3654       317400       -0.353053
27.374       317500       -0.35328
27.3826       317600       -0.353507
27.3913       317700       -0.353734
27.3999       317800       -0.353961
27.4085       317900       -0.354187
27.4171       318000       -0.354413
27.4257       318100       -0.354639
27.4344       318200       -0.354865
27.443       318300       -0.355091
27.4516       318400       -0.355317
27.4602       318500       -0.355542
27.4689       318600       -0.355768
27.4775       318700       -0.355993
27.4861       318800       -0.356218
27.4947       318900       -0.356443
27.5033       319000       -0.356668
27.512       319100       -0.356893
27.5206       319200       -0.357117
27.5292       319300       -0.357342
27.5378       319400       -0.357566
27.5465       319500       -0.35779
27.5551       319600       -0.358014
27.5637       319700       -0.358238
27.5723       319800       -0.358461
27.5809       319900       -0.358685
27.5896       320000       -0.358908
27.5982       320100       -0.359131
27.6068       320200       -0.359355
27.6154       320300       -0.359577
27.624       320400       -0.3598
27.6327       320500       -0.360023
27.6413       320600       -0.360245
27.6499       320700       -0.360468
27.6585       320800       -0.36069
27.6672       320900       -0.360912
27.6758       321000       -0.361134
27.6844       321100       -0.361356
27.693       321200       -0.361578
27.7016       321300       -0.361799
27.7103       321400       -0.36202
27.7189       321500       -0.362242
27.7275       321600       -0.362463
27.7361       321700       -0.362684
27.7448       321800       -0.362904
27.7534       321900       -0.363125
27.762       322000       -0.363346
27.7706       322100       -0.363566
27.7792       322200       -0.363786
27.7879       322300       -0.364006
27.7965       322400       -0.364226
27.8051       322500       -0.364446
27.8137       322600       -0.364666
27.8223       322700       -0.364885
27.831       322800       -0.365105
27.8396       322900       -0.365324
27.8482       323000       -0.365543
27.8568       323100       -0.365762
27.8655       323200       -0.365981
27.8741       323300       -0.3662
27.8827       323400       -0.366418
27.8913       323500       -0.366637
27.8999       323600       -0.366855
27.9086       323700       -0.367073
27.9172       323800       -0.367291
27.9258       323900       -0.367509
27.9344       324000       -0.367727
27.9431       324100       -0.367944
27.9517       324200       -0.368162
27.9603       324300       -0.368379
27.9689       324400       -0.368596
27.9775       324500       -0.368813
27.9862       324600       -0.36903
27.9948       324700       -0.369247
28.0034       324800       -0.369464
28.012       324900       -0.36968
28.0206       325000       -0.369897
28.0293       325100       -0.370113
28.0379       325200       -0.370329
28.0465       325300       -0.370545
28.0551       325400       -0.370761
28.0638       325500       -0.370976
28.0724       325600       -0.371192
28.081       325700       -0.371407
28.0896       325800       -0.371622
28.0982       325900       -0.371838
28.1069       326000       -0.372053
28.1155       326100       -0.372267
28.1241       326200       -0.372482
28.1327       326300       -0.372697
28.1414       326400       -0.372911
28.15       326500       -0.373126
28.1586       326600       -0.37334
28.1672       326700       -0.373554
28.1758       326800       -0.373768
28.1845       326900       -0.373981
28.1931       327000       -0.374195
28.2017       327100       -0.374409
28.2103       327200       -0.374622
28.2189       327300       -0.374835
28.2276       327400       -0.375048
28.2362       327500       -0.375261
28.2448       327600       -0.375474
28.2534       327700       -0.375687
28.2621       327800       -0.375899
28.2707       327900       -0.376112
28.2793       328000       -0.376324
28.2879       328100       -0.376536
28.2965       328200       -0.376748
28.3052       328300       -0.37696
28.3138       328400       -0.377172
28.3224       328500       -0.377383
28.331       328600       -0.377595
28.3397       328700       -0.377806
28.3483       328800       -0.378018
28.3569       328900       -0.378229
28.3655       329000       -0.37844
28.3741       329100       -0.37865
28.3828       329200       -0.378861
28.3914       329300       -0.379072
28.4       329400       -0.379282
28.4086       329500       -0.379492
28.4172       329600       -0.379703
28.4259       329700       -0.379913
28.4345       329800       -0.380123
28.4431       329900       -0.380332
28.4517       330000       -0.380542
28.4604       330100       -0.380751
28.469       330200       -0.380961
28.4776       330300       -0.38117
28.4862       330400       -0.381379
28.4948       330500       -0.381588
28.5035       330600       -0.381797
28.5121       330700       -0.382006
28.5207       330800       -0.382214
28.5293       330900       -0.382423
28.538       331000       -0.382631
28.5466       331100       -0.382839
28.5552       331200       -0.383048
28.5638       331300       -0.383255
28.5724       331400       -0.383463
28.5811       331500       -0.383671
28.5897       331600       -0.383879
28.5983       331700       -0.384086
28.6069       331800       -0.384293
28.6155       331900       -0.3845
28.6242       332000       -0.384707
28.6328       332100       -0.384914
28.6414       332200       -0.385121
28.65       332300       -0.385328
28.6587       332400       -0.385534
28.6673       332500       -0.385741
28.6759       332600       -0.385947
28.6845       332700       -0.386153
28.6931       332800       -0.386359
28.7018       332900       -0.386565
28.7104       333000       -0.386771
28.719       333100       -0.386976
28.7276       333200       -0.387182
28.7363       333300       -0.387387
28.7449       333400       -0.387593
28.7535       333500       -0.387798
28.7621       333600       -0.388003
28.7707       333700       -0.388208
28.7794       333800       -0.388412
28.788       333900       -0.388617
28.7966       334000       -0.388821
28.8052       334100       -0.389026
28.8138       334200       -0.38923
28.8225       334300       -0.389434
28.8311       334400       -0.389638
28.8397       334500       -0.389842
28.8483       334600       -0.390046
28.857       334700       -0.390249
28.8656       334800       -0.390453
28.8742       334900       -0.390656
28.8828       335000       -0.390859
28.8914       335100       -0.391062
28.9001       335200       -0.391265
28.9087       335300       -0.391468
28.9173       335400       -0.391671
28.9259       335500       -0.391874
28.9346       335600       -0.392076
28.9432       335700       -0.392278
28.9518       335800       -0.392481
28.9604       335900       -0.392683
28.969       336000       -0.392885
28.9777       336100       -0.393087
28.9863       336200       -0.393288
28.9949       336300       -0.39349
29.0035       336400       -0.393691
29.0121       336500       -0.393893
29.0208       336600       -0.394094
29.0294       336700       -0.394295
29.038       336800       -0.394496
29.0466       336900       -0.394697
29.0553       337000       -0.394898
29.0639       337100       -0.395098
29.0725       337200       -0.395299
29.0811       337300       -0.395499
29.0897       337400       -0.395699
29.0984       337500       -0.395899
29.107       337600       -0.396099
29.1156       337700       -0.396299
29.1242       337800       -0.396499
29.1329       337900       -0.396699
29.1415       338000       -0.396898
29.1501       338100       -0.397098
29.1587       338200       -0.397297
29.1673       338300       -0.397496
29.176       338400       -0.397695
29.1846       338500       -0.397894
29.1932       338600       -0.398093
29.2018       338700       -0.398291
29.2104       338800       -0.39849
29.2191       338900       -0.398688
29.2277       339000       -0.398886
29.2363       339100       -0.399085
29.2449       339200       -0.399283
29.2536       339300       -0.399481
29.2622       339400       -0.399678
29.2708       339500       -0.399876
29.2794       339600       -0.400074
29.288       339700       -0.400271
29.2967       339800       -0.400468
29.3053       339900       -0.400666
29.3139       340000       -0.400863
29.3225       340100       -0.40106
29.3312       340200       -0.401256
29.3398       340300       -0.401453
29.3484       340400       -0.40165
29.357       340500       -0.401846
29.3656       340600       -0.402043
29.3743       340700       -0.402239
29.3829       340800       -0.402435
29.3915       340900       -0.402631
29.4001       341000       -0.402827
29.4087       341100       -0.403023
29.4174       341200       -0.403218
29.426       341300       -0.403414
29.4346       341400       -0.403609
29.4432       341500       -0.403804
29.4519       341600       -0.404
29.4605       341700       -0.404195
29.4691       341800       -0.40439
29.4777       341900       -0.404584
29.4863       342000       -0.404779
29.495       342100       -0.404974
29.5036       342200       -0.405168
29.5122       342300       -0.405362
29.5208       342400       -0.405557
29.5295       342500       -0.405751
29.5381       342600       -0.405945
29.5467       342700       -0.406139
29.5553       342800       -0.406332
29.5639       342900       -0.406526
29.5726       343000       -0.40672
29.5812       343100       -0.406913
29.5898       343200       -0.407106
29.5984       343300       -0.407299
29.607       343400       -0.407492
29.6157       343500       -0.407685
29.6243       343600       -0.407878
29.6329       343700       -0.408071
29.6415       343800       -0.408263
29.6502       343900       -0.408456
29.6588       344000       -0.408648
29.6674       344100       -0.40884
29.676       344200       -0.409033
29.6846       344300       -0.409225
29.6933       344400       -0.409416
29.7019       344500       -0.409608
29.7105       344600       -0.4098
29.7191       344700       -0.409991
29.7278       344800       -0.410183
29.7364       344900       -0.410374
29.745       345000       -0.410565
29.7536       345100       -0.410756
29.7622       345200       -0.410947
29.7709       345300       -0.411138
29.7795       345400       -0.411329
29.7881       345500       -0.41152
29.7967       345600       -0.41171
29.8053       345700       -0.4119
29.814       345800       -0.412091
29.8226       345900       -0.412281
29.8312       346000       -0.412471
29.8398       346100       -0.412661
29.8485       346200       -0.412851
29.8571       346300       -0.41304
29.8657       346400       -0.41323
29.8743       346500       -0.413419
29.8829       346600       -0.413609
29.8916       346700       -0.413798
29.9002       346800       -0.413987
29.9088       346900       -0.414176
29.9174       347000       -0.414365
29.9261       347100       -0.414554
29.9347       347200       -0.414742
29.9433       347300       -0.414931
29.9519       347400       -0.41512
29.9605       347500       -0.415308
29.9692       347600       -0.415496
29.9778       347700       -0.415684
29.9864       347800       -0.415872
29.995       347900       -0.41606
30.0036       348000       -0.416248
30.0123       348100       -0.416435
30.0209       348200       -0.416623
30.0295       348300       -0.41681
30.0381       348400       -0.416998
30.0468       348500       -0.417185
30.0554       348600       -0.417372
30.064       348700       -0.417559
30.0726       348800       -0.417746
30.0812       348900       -0.417933
30.0899       349000       -0.418119
30.0985       349100       -0.418306
30.1071       349200       -0.418492
30.1157       349300       -0.418679
30.1244       349400       -0.418865
30.133       349500       -0.419051
30.1416       349600       -0.419237
30.1502       349700       -0.419423
30.1588       349800       -0.419609
30.1675       349900       -0.419794
30.1761       350000       -0.41998
30.1847       350100       -0.420165
30.1933       350200       -0.420351
30.2019       350300       -0.420536
30.2106       350400       -0.420721
30.2192       350500       -0.420906
30.2278       350600       -0.421091
30.2364       350700       -0.421276
30.2451       350800       -0.42146
30.2537       350900       -0.421645
30.2623       351000       -0.421829
30.2709       351100       -0.422014
30.2795       351200       -0.422198
30.2882       351300       -0.422382
30.2968       351400       -0.422566
30.3054       351500       -0.42275
30.314       351600       -0.422934
30.3227       351700       -0.423117
30.3313       351800       -0.423301
30.3399       351900       -0.423484
30.3485       352000       -0.423668
30.3571       352100       -0.423851
30.3658       352200       -0.424034
30.3744       352300       -0.424217
30.383       352400       -0.4244
30.3916       352500       -0.424583
30.4002       352600       -0.424765
30.4089       352700       -0.424948
30.4175       352800       -0.425131
30.4261       352900       -0.425313
30.4347       353000       -0.425495
30.4434       353100       -0.425677
30.452       353200       -0.425859
30.4606       353300       -0.426041
30.4692       353400       -0.426223
30.4778       353500       -0.426405
30.4865       353600       -0.426586
30.4951       353700       -0.426768
30.5037       353800       -0.426949
30.5123       353900       -0.427131
30.521       354000       -0.427312
30.5296       354100       -0.427493
30.5382       354200       -0.427674
30.5468       354300       -0.427855
30.5554       354400       -0.428036
30.5641       354500       -0.428216
30.5727       354600       -0.428397
30.5813       354700       -0.428577
30.5899       354800       -0.428758
30.5985       354900       -0.428938
30.6072       355000       -0.429118
30.6158       355100       -0.429298
30.6244       355200       -0.429478
30.633       355300       -0.429658
30.6417       355400       -0.429837
30.6503       355500       -0.430017
30.6589       355600       -0.430197
30.6675       355700       -0.430376
30.6761       355800       -0.430555
30.6848       355900       -0.430734
30.6934       356000       -0.430913
30.702       356100       -0.431092
30.7106       356200       -0.431271
30.7193       356300       -0.43145
30.7279       356400       -0.431629
30.7365       356500       -0.431807
30.7451       356600       -0.431986
30.7537       356700       -0.432164
30.7624       356800       -0.432342
30.771       356900       -0.43252
30.7796       357000       -0.432698
30.7882       357100       -0.432876
30.7968       357200       -0.433054
30.8055       357300       -0.433232
30.8141       357400       -0.433409
30.8227       357500       -0.433587
30.8313       357600       -0.433764
30.84       357700       -0.433942
30.8486       357800       -0.434119
30.8572       357900       -0.434296
30.8658       358000       -0.434473
30.8744       358100       -0.43465
30.8831       358200       -0.434827
30.8917       358300       -0.435003
30.9003       358400       -0.43518
30.9089       358500       -0.435356
30.9176       358600       -0.435533
30.9262       358700       -0.435709
30.9348       358800       -0.435885
30.9434       358900       -0.436061
30.952       359000       -0.436237
30.9607       359100       -0.436413
30.9693       359200       -0.436589
30.9779       359300       -0.436764
30.9865       359400       -0.43694
30.9951       359500       -0.437115
31.0038       359600       -0.437291
31.0124       359700       -0.437466
31.021       359800       -0.437641
31.0296       359900       -0.437816
31.0383       360000       -0.437991
31.0469       360100       -0.438166
31.0555       360200       -0.438341
31.0641       360300       -0.438515
31.0727       360400       -0.43869
31.0814       360500       -0.438864
31.09       360600       -0.439039
31.0986       360700       -0.439213
31.1072       360800       -0.439387
31.1159       360900       -0.439561
31.1245       361000       -0.439735
31.1331       361100       -0.439909
31.1417       361200       -0.440082
31.1503       361300       -0.440256
31.159       361400       -0.44043
31.1676       361500       -0.440603
31.1762       361600       -0.440776
31.1848       361700       -0.440949
31.1934       361800       -0.441123
31.2021       361900       -0.441296
31.2107       362000       -0.441468
31.2193       362100       -0.441641
31.2279       362200       -0.441814
31.2366       362300       -0.441987
31.2452       362400       -0.442159
31.2538       362500       -0.442332
31.2624       362600       -0.442504
31.271       362700       -0.442676
31.2797       362800       -0.442848
31.2883       362900       -0.44302
31.2969       363000       -0.443192
31.3055       363100       -0.443364
31.3142       363200       -0.443536
31.3228       363300       -0.443707
31.3314       363400       -0.443879
31.34       363500       -0.44405
31.3486       363600       -0.444222
31.3573       363700       -0.444393
31.3659       363800       -0.444564
31.3745       363900       -0.444735
31.3831       364000       -0.444906
31.3917       364100       -0.445077
31.4004       364200       -0.445247
31.409       364300       -0.445418
31.4176       364400       -0.445589
31.4262       364500       -0.445759
31.4349       364600       -0.445929
31.4435       364700       -0.4461
31.4521       364800       -0.44627
31.4607       364900       -0.44644
31.4693       365000       -0.44661
31.478       365100       -0.44678
31.4866       365200       -0.446949
31.4952       365300       -0.447119
31.5038       365400       -0.447289
31.5125       365500       -0.447458
31.5211       365600       -0.447627
31.5297       365700       -0.447797
31.5383       365800       -0.447966
31.5469       365900       -0.448135
31.5556       366000       -0.448304
31.5642       366100       -0.448473
31.5728       366200       -0.448641
31.5814       366300       -0.44881
31.59       366400       -0.448979
31.5987       366500       -0.449147
31.6073       366600       -0.449316
31.6159       366700       -0.449484
31.6245       366800       -0.449652
31.6332       366900       -0.44982
31.6418       367000       -0.449988
31.6504       367100       -0.450156
31.659       367200       -0.450324
31.6676       367300       -0.450492
31.6763       367400       -0.450659
31.6849       367500       -0.450827
31.6935       367600       -0.450994
31.7021       367700       -0.451162
31.7108       367800       -0.451329
31.7194       367900       -0.451496
31.728       368000       -0.451663
31.7366       368100       -0.45183
31.7452       368200       -0.451997
31.7539       368300       -0.452164
31.7625       368400       -0.45233
31.7711       368500       -0.452497
31.7797       368600       -0.452663
31.7883       368700       -0.45283
31.797       368800       -0.452996
31.8056       368900       -0.453162
31.8142       369000       -0.453328
31.8228       369100       -0.453494
31.8315       369200       -0.45366
31.8401       369300       -0.453826
31.8487       369400       -0.453992
31.8573       369500       -0.454157
31.8659       369600       -0.454323
31.8746       369700       -0.454488
31.8832       369800       -0.454654
31.8918       369900       -0.454819
31.9004       370000       -0.454984
31.9091       370100       -0.455149
31.9177       370200       -0.455314
31.9263       370300       -0.455479
31.9349       370400       -0.455644
31.9435       370500       -0.455808
31.9522       370600       -0.455973
31.9608       370700       -0.456137
31.9694       370800       -0.456302
31.978       370900       -0.456466
31.9866       371000       -0.45663
31.9953       371100       -0.456794
32.0039       371200       -0.456958
32.0125       371300       -0.457122
32.0211       371400       -0.457286
32.0298       371500       -0.45745
32.0384       371600       -0.457614
32.047       371700       -0.457777
32.0556       371800       -0.457941
32.0642       371900       -0.458104
32.0729       372000       -0.458267
32.0815       372100       -0.458431
32.0901       372200       -0.458594
32.0987       372300       -0.458757
32.1074       372400       -0.45892
32.116       372500       -0.459082
32.1246       372600       -0.459245
32.1332       372700       -0.459408
32.1418       372800       -0.45957
32.1505       372900       -0.459733
32.1591       373000       -0.459895
32.1677       373100       -0.460057
32.1763       373200       -0.46022
32.1849       373300       -0.460382
32.1936       373400       -0.460544
32.2022       373500       -0.460706
32.2108       373600       -0.460867
32.2194       373700       -0.461029
32.2281       373800       -0.461191
32.2367       373900       -0.461352
32.2453       374000       -0.461514
32.2539       374100       -0.461675
32.2625       374200       -0.461836
32.2712       374300       -0.461998
32.2798       374400       -0.462159
32.2884       374500       -0.46232
32.297       374600       -0.462481
32.3057       374700       -0.462641
32.3143       374800       -0.462802
32.3229       374900       -0.462963
32.3315       375000       -0.463123
32.3401       375100       -0.463284
32.3488       375200       -0.463444
32.3574       375300       -0.463604
32.366       375400       -0.463765
32.3746       375500       -0.463925
32.3832       375600       -0.464085
32.3919       375700       -0.464245
32.4005       375800       -0.464405
32.4091       375900       -0.464564
32.4177       376000       -0.464724
32.4264       376100       -0.464883
32.435       376200       -0.465043
32.4436       376300       -0.465202
32.4522       376400       -0.465362
32.4608       376500       -0.465521
32.4695       376600       -0.46568
32.4781       376700       -0.465839
32.4867       376800       -0.465998
32.4953       376900       -0.466157
32.504       377000       -0.466315
32.5126       377100       -0.466474
32.5212       377200       -0.466633
32.5298       377300       -0.466791
32.5384       377400       -0.46695
32.5471       377500       -0.467108
32.5557       377600       -0.467266
32.5643       377700       -0.467424
32.5729       377800       -0.467582
32.5815       377900       -0.46774
32.5902       378000       -0.467898
32.5988       378100       -0.468056
32.6074       378200       -0.468214
32.616       378300       -0.468371
32.6247       378400       -0.468529
32.6333       378500       -0.468686
32.6419       378600       -0.468843
32.6505       378700       -0.469001
32.6591       378800       -0.469158
32.6678       378900       -0.469315
32.6764       379000       -0.469472
32.685       379100       -0.469629
32.6936       379200       -0.469786
32.7023       379300       -0.469942
32.7109       379400       -0.470099
32.7195       379500       -0.470256
32.7281       379600       -0.470412
32.7367       379700       -0.470568
32.7454       379800       -0.470725
32.754       379900       -0.470881
32.7626       380000       -0.471037
32.7712       380100       -0.471193
32.7798       380200       -0.471349
32.7885       380300       -0.471505
32.7971       380400       -0.471661
32.8057       380500       -0.471816
32.8143       380600       -0.471972
32.823       380700       -0.472127
32.8316       380800       -0.472283
32.8402       380900       -0.472438
32.8488       381000       -0.472593
32.8574       381100       -0.472749
32.8661       381200       -0.472904
32.8747       381300       -0.473059
32.8833       381400       -0.473214
32.8919       381500       -0.473368
32.9006       381600       -0.473523
32.9092       381700       -0.473678
32.9178       381800       -0.473832
32.9264       381900       -0.473987
32.935       382000       -0.474141
32.9437       382100       -0.474296
32.9523       382200       -0.47445
32.9609       382300       -0.474604
32.9695       382400       -0.474758
32.9781       382500       -0.474912
32.9868       382600       -0.475066
32.9954       382700       -0.47522
33.004       382800       -0.475373
33.0126       382900       -0.475527
33.0213       383000       -0.47568
33.0299       383100       -0.475834
33.0385       383200       -0.475987
33.0471       383300       -0.476141
33.0557       383400       -0.476294
33.0644       383500       -0.476447
33.073       383600       -0.4766
33.0816       383700       -0.476753
33.0902       383800       -0.476906
33.0989       383900       -0.477058
33.1075       384000       -0.477211
33.1161       384100       -0.477364
33.1247       384200       -0.477516
33.1333       384300       -0.477669
33.142       384400       -0.477821
33.1506       384500       -0.477973
33.1592       384600       -0.478126
33.1678       384700       -0.478278
33.1764       384800       -0.47843
33.1851       384900       -0.478582
33.1937       385000       -0.478734
33.2023       385100       -0.478885
33.2109       385200       -0.479037
33.2196       385300       -0.479189
33.2282       385400       -0.47934
33.2368       385500       -0.479492
33.2454       385600       -0.479643
33.254       385700       -0.479794
33.2627       385800       -0.479945
33.2713       385900       -0.480096
33.2799       386000       -0.480247
33.2885       386100       -0.480398
33.2972       386200       -0.480549
33.3058       386300       -0.4807
33.3144       386400       -0.480851
33.323       386500       -0.481001
33.3316       386600       -0.481152
33.3403       386700       -0.481302
33.3489       386800       -0.481453
33.3575       386900       -0.481603
33.3661       387000       -0.481753
33.3747       387100       -0.481903
33.3834       387200       -0.482053
33.392       387300       -0.482203
33.4006       387400       -0.482353
33.4092       387500       -0.482503
33.4179       387600       -0.482653
33.4265       387700       -0.482802
33.4351       387800       -0.482952
33.4437       387900       -0.483101
33.4523       388000       -0.483251
33.461       388100       -0.4834
33.4696       388200       -0.483549
33.4782       388300       -0.483698
33.4868       388400       -0.483847
33.4955       388500       -0.483996
33.5041       388600       -0.484145
33.5127       388700       -0.484294
33.5213       388800       -0.484443
33.5299       388900       -0.484591
33.5386       389000       -0.48474
33.5472       389100       -0.484888
33.5558       389200       -0.485037
33.5644       389300       -0.485185
33.573       389400       -0.485333
33.5817       389500       -0.485481
33.5903       389600       -0.48563
33.5989       389700       -0.485778
33.6075       389800       -0.485925
33.6162       389900       -0.486073
33.6248       390000       -0.486221
33.6334       390100       -0.486369
33.642       390200       -0.486516
33.6506       390300       -0.486664
33.6593       390400       -0.486811
33.6679       390500       -0.486959
33.6765       390600       -0.487106
33.6851       390700       -0.487253
33.6938       390800       -0.4874
33.7024       390900       -0.487547
33.711       391000       -0.487694
33.7196       391100       -0.487841
33.7282       391200       -0.487988
33.7369       391300       -0.488134
33.7455       391400       -0.488281
33.7541       391500       -0.488428
33.7627       391600       -0.488574
33.7713       391700       -0.488721
33.78       391800       -0.488867
33.7886       391900       -0.489013
33.7972       392000       -0.489159
33.8058       392100       -0.489305
33.8145       392200       -0.489451
33.8231       392300       -0.489597
33.8317       392400       -0.489743
33.8403       392500       -0.489889
33.8489       392600       -0.490035
33.8576       392700       -0.49018
33.8662       392800       -0.490326
33.8748       392900       -0.490471
33.8834       393000       -0.490616
33.8921       393100       -0.490762
33.9007       393200       -0.490907
33.9093       393300       -0.491052
33.9179       393400       -0.491197
33.9265       393500       -0.491342
33.9352       393600       -0.491487
33.9438       393700       -0.491632
33.9524       393800       -0.491777
33.961       393900       -0.491921
33.9696       394000       -0.492066
33.9783       394100       -0.49221
33.9869       394200       -0.492355
33.9955       394300       -0.492499
34.0041       394400       -0.492643
34.0128       394500       -0.492788
34.0214       394600       -0.492932
34.03       394700       -0.493076
34.0386       394800       -0.49322
34.0472       394900       -0.493363
34.0559       395000       -0.493507
34.0645       395100       -0.493651
34.0731       395200       -0.493795
34.0817       395300       -0.493938
34.0904       395400       -0.494082
34.099       395500       -0.494225
34.1076       395600       -0.494368
34.1162       395700       -0.494512
34.1248       395800       -0.494655
34.1335       395900       -0.494798
34.1421       396000       -0.494941
34.1507       396100       -0.495084
34.1593       396200       -0.495227
34.1679       396300       -0.49537
34.1766       396400       -0.495512
34.1852       396500       -0.495655
34.1938       396600       -0.495798
34.2024       396700       -0.49594
34.2111       396800       -0.496083
34.2197       396900       -0.496225
34.2283       397000       -0.496367
34.2369       397100       -0.496509
34.2455       397200       -0.496651
34.2542       397300       -0.496793
34.2628       397400       -0.496935
34.2714       397500       -0.497077
34.28       397600       -0.497219
34.2887       397700       -0.497361
34.2973       397800       -0.497502
34.3059       397900       -0.497644
34.3145       398000       -0.497786
34.3231       398100       -0.497927
34.3318       398200       -0.498068
34.3404       398300       -0.49821
34.349       398400       -0.498351
34.3576       398500       -0.498492
34.3662       398600       -0.498633
34.3749       398700       -0.498774
34.3835       398800       -0.498915
34.3921       398900       -0.499056
34.4007       399000       -0.499196
34.4094       399100       -0.499337
34.418       399200       -0.499478
34.4266       399300       -0.499618
34.4352       399400       -0.499759
34.4438       399500       -0.499899
34.4525       399600       -0.500039
34.4611       399700       -0.50018
34.4697       399800       -0.50032
34.4783       399900       -0.50046
34.487       400000       -0.5006
